# spectrum  Type     U-V    B-V    V-R    V-I    V-J    V-K
# ---------------------------------------------------------
# bpgs_24  A5V      0.24   0.12   0.09   0.19   0.32   0.40
#
# lambda (Angstroms)  flux (phot/lambda)
#----------------------------------------------------------
PHOTLAM
      512.023  1.57418e-15
      524.570  5.07822e-15
      537.117  1.02968e-14
      549.664  2.72927e-14
      562.212  5.30054e-14
      574.759  1.26902e-13
      587.306  2.50082e-13
      599.853  5.67669e-13
      612.401  1.07216e-12
      624.948  2.41128e-12
      637.495  4.10503e-12
      650.042  9.46240e-12
      662.590  1.60820e-11
      675.137  3.11838e-11
      687.684  6.20878e-11
      700.231  9.40460e-11
      712.779  1.84853e-10
      725.326  3.13284e-10
      737.873  5.17370e-10
      750.420  9.82585e-10
      762.968  1.46987e-09
      775.515  2.61591e-09
      788.062  4.59314e-09
      800.609  6.57308e-09
      813.157  1.01589e-08
      825.704  1.76483e-08
      838.251  2.53134e-08
      850.798  3.59151e-08
      863.346  6.03001e-08
      875.893  8.64451e-08
      888.440  5.63252e-07
      900.987  5.73070e-06
      913.535  1.21427e-05
      926.082  3.00892e-05
      938.629  6.00389e-05
      951.177  8.76403e-05
      963.724  0.000118964
      976.271  0.000165813
      988.818  0.000216241
      1001.37  0.000274316
      1013.91  0.000336552
      1026.46  0.000410735
      1039.01  0.000500517
      1051.55  0.000638826
      1064.10  0.000788844
      1076.65  0.000964174
      1089.20   0.00246716
      1101.74   0.00815542
      1114.29    0.0133374
      1126.84    0.0159062
      1139.39    0.0184011
      1151.93    0.0223277
      1164.48    0.0263176
      1177.03    0.0298202
      1189.57    0.0312014
      1202.12    0.0332007
      1214.67    0.0402123
      1227.22     0.118554
      1239.76     0.323213
      1252.31     0.999851
      1264.86      2.26462
      1277.41      4.27800
      1289.95      6.00498
      1302.50      7.69350
      1315.05      9.57418
      1327.59      11.5992
      1340.14      13.4086
      1352.69      13.4715
      1365.24      13.7774
      1377.78      14.7917
      1390.33      15.7510
      1402.88      16.6596
      1415.42      17.4990
      1427.97      19.2394
      1440.52      21.8211
      1453.07      25.8900
      1465.61      28.1283
      1478.16      28.0491
      1490.71      30.0252
      1503.26      37.0867
      1515.80      54.6660
      1528.35      68.0437
      1540.90      75.4752
      1553.44      67.4137
      1565.99      70.5080
      1578.54      87.5917
      1591.09      101.873
      1603.63      113.905
      1616.18      122.579
      1628.73      127.302
      1641.28      130.333
      1653.82      134.200
      1666.37      137.001
      1678.92      139.767
      1691.46      151.933
      1704.01      171.246
      1716.56      199.598
      1729.11      214.232
      1741.65      227.735
      1754.20      259.827
      1766.75      277.377
      1779.30      282.739
      1791.84      302.329
      1804.39      308.147
      1816.94      285.434
      1829.48      272.445
      1842.03      269.472
      1854.58      285.874
      1867.13      295.814
      1879.67      299.797
      1892.22      305.285
      1904.77      310.240
      1917.32      313.718
      1929.86      313.595
      1942.41      313.842
      1954.96      318.989
      1967.50      318.029
      1980.05      311.239
      1992.60      296.415
      2005.15      285.976
      2017.69      284.030
      2030.24      289.511
      2042.79      294.293
      2055.33      290.696
      2067.88      298.036
      2080.43      308.329
      2092.98      296.264
      2105.52      285.153
      2118.07      278.732
      2130.62      263.612
      2143.17      252.114
      2155.71      255.909
      2168.26      258.748
      2180.81      261.481
      2193.35      268.082
      2205.90      268.161
      2218.45      260.430
      2231.00      254.453
      2243.54      248.634
      2256.09      242.493
      2268.64      247.994
      2281.19      256.488
      2293.73      252.379
      2306.28      243.955
      2318.83      232.822
      2331.37      223.648
      2343.92      215.980
      2356.47      210.535
      2369.02      208.825
      2381.56      207.225
      2394.11      199.643
      2406.66      202.702
      2419.20      216.630
      2431.75      236.705
      2444.30      250.928
      2456.85      251.997
      2469.39      247.704
      2481.94      245.539
      2494.49      257.764
      2507.04      257.879
      2519.58      245.552
      2532.13      221.290
      2544.68      215.068
      2557.22      241.564
      2569.77      265.732
      2582.32      282.248
      2594.87      278.430
      2607.41      274.577
      2619.96      277.042
      2632.51      311.658
      2645.06      335.458
      2657.60      335.300
      2670.15      331.261
      2682.70      326.744
      2695.24      324.385
      2707.79      326.293
      2720.34      327.333
      2732.89      309.286
      2745.43      298.904
      2757.98      301.622
      2770.53      296.517
      2783.07      288.864
      2795.62      281.456
      2808.17      300.029
      2820.72      331.101
      2833.26      349.312
      2845.81      352.925
      2858.36      342.765
      2870.91      345.579
      2883.45      353.543
      2896.00      365.141
      2908.55      379.457
      2921.09      391.250
      2933.64      386.303
      2946.19      386.053
      2958.74      392.403
      2971.28      396.150
      2983.83      402.182
      2996.38      414.024
      3008.93      422.169
      3021.47      427.393
      3034.02      428.417
      3046.57      428.568
      3059.11      429.343
      3071.66      438.292
      3084.21      444.109
      3096.76      441.050
      3109.30      442.176
      3121.85      446.039
      3134.40      452.881
      3146.95      457.754
      3159.49      460.764
      3172.04      463.769
      3184.59      466.337
      3197.13      467.949
      3209.68      465.131
      3222.23      461.209
      3234.78      459.326
      3247.32      472.651
      3259.87      496.201
      3272.42      490.715
      3284.97      474.059
      3297.51      517.365
      3310.06      505.987
      3322.61      495.491
      3335.15      500.505
      3347.70      495.139
      3360.25      495.257
      3372.80      486.713
      3385.34      488.258
      3397.89      501.932
      3410.44      518.997
      3422.98      517.100
      3435.53      493.667
      3448.08      500.846
      3460.63      506.998
      3473.17      504.444
      3485.72      497.490
      3498.27      495.458
      3510.82      489.504
      3523.36      488.277
      3535.91      489.545
      3548.46      505.278
      3561.00      498.668
      3573.55      484.729
      3586.10      482.843
      3598.65      474.962
      3611.19      474.054
      3623.74      486.043
      3636.29      491.739
      3648.84      502.452
      3661.38      509.582
      3673.93      500.413
      3686.48      493.735
      3699.02      501.704
      3711.57      525.098
      3724.12      565.046
      3736.67      577.771
      3749.21      618.605
      3761.76      648.577
      3774.31      734.720
      3786.86      783.423
      3799.40      775.033
      3811.95      917.154
      3824.50      861.631
      3837.04      769.370
      3849.59      990.454
      3862.14      1156.06
      3874.69      1001.81
      3887.23      795.485
      3899.78      959.664
      3912.33      1154.59
      3924.87      1112.30
      3937.42      1089.74
      3949.97      1092.44
      3962.52      848.340
      3975.06      867.017
      3987.61      1171.49
      4000.16      1390.60
      4012.71      1450.30
      4025.25      1486.56
      4037.80      1516.01
      4050.35      1510.50
      4062.89      1448.14
      4075.44      1277.72
      4087.99      1031.86
      4100.54      884.333
      4113.08      1088.40
      4125.63      1343.16
      4138.18      1465.67
      4150.73      1476.44
      4163.27      1479.34
      4175.82      1450.59
      4188.37      1481.27
      4200.91      1518.22
      4213.46      1494.43
      4226.01      1478.86
      4238.56      1438.53
      4251.10      1432.60
      4263.65      1447.30
      4276.20      1420.37
      4288.74      1352.91
      4301.29      1238.84
      4313.84      1096.23
      4326.39      928.707
      4338.93      816.578
      4351.48      983.807
      4364.03      1203.12
      4376.58      1301.12
      4389.12      1296.13
      4401.67      1266.21
      4414.22      1301.75
      4426.76      1327.60
      4439.31      1318.20
      4451.86      1312.42
      4464.41      1314.68
      4476.95      1313.44
      4489.50      1326.42
      4502.05      1358.28
      4514.60      1366.39
      4527.14      1353.58
      4539.69      1352.43
      4552.24      1333.63
      4564.78      1345.10
      4577.33      1346.20
      4589.88      1374.50
      4602.43      1390.15
      4614.97      1382.72
      4627.52      1349.89
      4640.07      1356.53
      4652.62      1334.03
      4665.16      1328.63
      4677.71      1331.58
      4690.26      1322.33
      4702.81      1312.79
      4715.35      1286.06
      4727.90      1291.26
      4740.45      1298.69
      4752.99      1306.58
      4765.54      1283.05
      4778.09      1299.48
      4790.64      1279.71
      4803.18      1259.44
      4815.73      1206.79
      4828.28      1150.05
      4840.82      1015.14
      4853.37      804.616
      4865.92      802.467
      4878.47      978.153
      4891.01      1107.54
      4903.56      1158.39
      4916.11      1171.79
      4928.66      1185.03
      4941.20      1206.68
      4953.75      1208.07
      4966.30      1202.41
      4978.84      1168.85
      4991.39      1178.82
      5003.94      1174.46
      5016.49      1160.26
      5029.03      1147.25
      5041.58      1133.94
      5054.13      1150.78
      5066.67      1152.51
      5079.22      1141.99
      5091.77      1130.52
      5104.32      1123.71
      5116.86      1119.89
      5129.41      1104.26
      5141.96      1108.01
      5154.51      1111.62
      5167.05      1088.72
      5179.60      1085.93
      5192.15      1062.48
      5204.69      1061.82
      5217.24      1069.02
      5229.79      1066.72
      5242.34      1074.41
      5254.88      1073.91
      5267.43      1044.83
      5279.98      1054.50
      5292.53      1061.22
      5305.07      1057.64
      5317.62      1048.34
      5330.17      1041.90
      5342.71      1046.94
      5355.26      1016.51
      5367.81      1003.57
      5380.36      1005.32
      5392.90      1011.93
      5405.45      1001.42
      5418.00      1008.38
      5430.55      1002.29
      5443.09      1008.21
      5455.64      1002.76
      5468.19      1004.90
      5480.73      1017.69
      5493.28      1024.40
      5505.83      1010.37
      5518.38      981.051
      5530.92      1001.86
      5543.47      1011.70
      5556.02      1013.09
      5568.57      1013.67
      5581.11      1001.94
      5593.66      989.882
      5606.21      990.293
      5618.75      978.239
      5631.30      978.036
      5643.85      973.600
      5656.40      970.143
      5668.94      959.425
      5681.49      954.366
      5694.04      955.029
      5706.58      956.655
      5719.13      953.425
      5731.68      946.658
      5744.23      939.369
      5756.77      951.296
      5769.32      944.907
      5781.87      934.846
      5794.41      939.661
      5806.96      942.488
      5819.51      942.624
      5832.06      942.601
      5844.60      935.674
      5857.15      918.358
      5869.70      911.815
      5882.25      906.002
      5894.79      889.642
      5907.34      881.423
      5919.89      881.059
      5932.44      888.001
      5944.98      894.783
      5957.53      899.033
      5970.08      897.844
      5982.62      891.497
      5995.17      876.629
      6007.72      876.202
      6020.27      884.263
      6032.81      884.192
      6045.36      884.620
      6057.91      887.210
      6070.45      887.739
      6083.00      882.682
      6095.55      865.923
      6108.10      864.809
      6120.64      868.098
      6133.19      845.570
      6145.74      832.091
      6158.29      833.088
      6170.83      832.596
      6183.38      833.181
      6195.93      837.185
      6208.47      836.290
      6221.02      830.788
      6233.57      817.301
      6246.12      804.116
      6258.66      792.528
      6271.21      783.735
      6283.76      781.334
      6296.30      790.204
      6308.85      796.821
      6321.40      800.068
      6333.95      795.902
      6346.49      790.355
      6359.04      784.784
      6371.59      782.828
      6384.14      784.194
      6396.68      789.904
      6409.23      788.206
      6421.78      785.085
      6434.32      788.197
      6446.87      779.202
      6459.42      762.742
      6471.97      768.094
      6484.51      771.257
      6497.06      762.633
      6509.61      740.813
      6522.16      709.688
      6534.70      666.335
      6547.25      644.388
      6559.80      646.464
      6572.34      689.457
      6584.89      730.643
      6597.44      756.173
      6609.99      760.579
      6622.53      757.116
      6635.08      753.106
      6647.63      753.906
      6660.18      759.354
      6672.72      772.301
      6685.27      776.995
      6697.82      769.233
      6710.36      762.609
      6722.91      757.650
      6735.46      756.066
      6748.01      758.456
      6760.55      763.241
      6773.10      768.120
      6785.65      767.976
      6798.20      761.785
      6810.74      753.239
      6823.29      750.750
      6835.84      762.351
      6848.38      747.303
      6860.93      721.286
      6873.48      714.068
      6886.03      721.524
      6898.57      740.821
      6911.12      748.490
      6923.67      747.462
      6936.21      735.002
      6948.76      724.628
      6961.31      715.300
      6973.86      705.136
      6986.40      694.197
      6998.95      684.215
      7011.50      687.355
      7024.05      691.440
      7036.59      691.541
      7049.14      690.460
      7061.69      687.827
      7074.23      681.302
      7086.78      679.343
      7099.33      681.502
      7111.88      681.684
      7124.42      680.891
      7136.97      679.301
      7149.52      678.367
      7162.07      675.065
      7174.61      663.994
      7187.16      662.963
      7199.71      668.348
      7212.25      661.361
      7224.80      653.468
      7237.35      648.191
      7249.90      649.651
      7262.44      653.431
      7274.99      656.414
      7287.54      657.690
      7300.09      657.754
      7312.63      657.780
      7325.18      650.676
      7337.73      634.898
      7350.27      630.489
      7362.82      628.905
      7375.37      624.820
      7387.92      627.058
      7400.46      633.181
      7413.01      637.486
      7425.56      635.589
      7438.11      627.413
      7450.65      628.148
      7463.20      631.105
      7475.75      632.454
      7488.29      627.983
      7500.84      622.880
      7513.39      629.712
      7525.94      635.747
      7538.48      639.558
      7551.03      646.946
      7563.58      635.119
      7576.12      581.632
      7588.67      532.191
      7601.22      509.277
      7613.77      578.000
      7626.31      614.963
      7638.86      609.074
      7651.41      600.773
      7663.96      586.428
      7676.50      562.400
      7689.05      554.661
      7701.60      555.372
      7714.15      558.269
      7726.69      563.435
      7739.24      569.955
      7751.79      572.807
      7764.33      572.574
      7776.88      568.633
      7789.43      565.568
      7801.98      564.461
      7814.52      568.215
      7827.07      567.970
      7839.62      564.818
      7852.16      565.878
      7864.71      564.767
      7877.26      559.076
      7889.81      554.607
      7902.35      551.622
      7914.90      551.400
      7927.45      546.680
      7939.99      540.927
      7952.54      548.194
      7965.09      552.916
      7977.64      551.189
      7990.18      553.655
      8002.73      554.718
      8015.28      548.446
      8027.83      544.923
      8040.37      543.533
      8052.92      541.826
      8065.47      537.376
      8078.02      529.706
      8090.56      524.043
      8103.11      521.635
      8115.66      525.553
      8128.20      533.558
      8140.75      539.744
      8153.30      528.191
      8165.85      517.419
      8178.39      511.562
      8190.94      517.086
      8203.49      520.357
      8216.03      512.727
      8228.58      523.770
      8241.13      539.189
      8253.68      530.791
      8266.22      521.205
      8278.77      512.696
      8291.32      497.741
      8303.86      496.418
      8316.41      522.716
      8328.96      518.748
      8341.51      505.046
      8354.05      510.987
      8366.60      506.562
      8379.15      494.642
      8391.70      509.945
      8404.24      514.306
      8416.79      490.132
      8429.34      487.822
      8441.88      489.786
      8454.43      473.380
      8466.98      476.121
      8479.53      494.222
      8492.07      499.525
      8504.62      498.702
      8517.17      492.860
      8529.72      490.072
      8542.26      490.255
      8554.81      495.511
      8567.36      503.305
      8579.90      511.430
      8592.45      512.331
      8605.00      514.463
      8617.55      519.814
      8630.09      520.657
      8642.64      508.124
      8655.19      465.856
      8667.73      473.197
      8680.28      509.064
      8692.83      514.023
      8705.38      506.098
      8717.92      489.734
      8730.47      487.014
      8743.02      487.724
      8755.57      486.453
      8768.11      499.425
      8780.66      513.877
      8793.21      495.854
      8805.76      487.576
      8818.30      493.208
      8830.85      469.088
      8843.40      447.258
      8855.94      449.532
      8868.49      459.975
      8881.04      473.325
      8893.59      482.634
      8906.13      490.018
      8918.68      496.797
      8931.23      509.914
      8943.78      512.963
      8956.32      493.119
      8968.87      473.856
      8981.42      453.377
      8993.96      426.120
      9006.51      417.647
      9019.06      429.949
      9031.61      460.899
      9044.15      478.750
      9056.70      467.047
      9069.25      471.738
      9081.80      482.922
      9094.34      489.172
      9106.89      487.556
      9119.44      480.497
      9131.98      478.580
      9144.53      473.309
      9157.08      461.245
      9169.63      454.186
      9182.17      447.243
      9194.72      434.157
      9207.27      418.543
      9219.81      404.564
      9232.36      408.418
      9244.91      421.048
      9257.46      441.623
      9270.00      467.455
      9282.55      487.986
      9295.10      488.882
      9307.65      471.417
      9320.19      448.470
      9332.74      457.358
      9345.29      464.932
      9357.83      463.869
      9370.38      466.151
      9382.93      467.557
      9395.48      463.342
      9408.02      434.907
      9420.57      401.740
      9433.12      414.254
      9445.66      430.826
      9458.21      442.498
      9470.76      443.785
      9483.31      430.585
      9495.85      393.304
      9508.40      372.964
      9520.95      364.682
      9533.50      363.574
      9546.04      375.714
      9558.59      400.191
      9571.14      416.997
      9583.69      425.459
      9596.23      421.563
      9608.78      416.102
      9621.33      410.819
      9633.87      407.947
      9646.42      417.565
