# spectrum  Type     U-V    B-V    V-R    V-I    V-J    V-K
# ---------------------------------------------------------
#  bpgs_7  B3V     -0.88  -0.21  -0.07  -0.15  -0.48  -0.61
#
# lambda (Angstroms)  flux (phot/lambda)
#----------------------------------------------------------
PHOTLAM
      512.023    0.0257341
      524.570    0.0425755
      537.117    0.0609814
      549.664    0.0899556
      562.212     0.123374
      574.759     0.161428
      587.306     0.208062
      599.853     0.294379
      612.401     0.390337
      624.948     0.505831
      637.495     0.627135
      650.042     0.795161
      662.590     0.979271
      675.137      1.20581
      687.684      1.51136
      700.231      1.81939
      712.779      2.19272
      725.326      2.60766
      737.873      3.07491
      750.420      3.72271
      762.968      4.38575
      775.515      5.13221
      788.062      5.98381
      800.609      6.83583
      813.157      7.75788
      825.704      8.85021
      838.251      9.95028
      850.798      11.1567
      863.346      12.8621
      875.893      14.6311
      888.440      18.5342
      900.987      44.6477
      913.535      76.6543
      926.082      567.916
      938.629      1567.06
      951.177      2762.11
      963.724      3925.72
      976.271      4799.16
      988.818      5547.39
      1001.37      5948.39
      1013.91      6342.77
      1026.46      6817.18
      1039.01      7329.06
      1051.55      7943.26
      1064.10      8376.30
      1076.65      8195.96
      1089.20      8065.64
      1101.74      8242.25
      1114.29      8510.67
      1126.84      8836.88
      1139.39      9036.13
      1151.93      9159.01
      1164.48      9033.62
      1177.03      8461.15
      1189.57      6829.34
      1202.12      4680.05
      1214.67      2210.14
      1227.22      3278.64
      1239.76      6643.02
      1252.31      7543.23
      1264.86      7955.49
      1277.41      8249.63
      1289.95      7716.92
      1302.50      7253.03
      1315.05      7830.46
      1327.59      7895.24
      1340.14      7591.85
      1352.69      7419.70
      1365.24      7196.87
      1377.78      6866.66
      1390.33      6412.74
      1402.88      6188.49
      1415.42      6667.46
      1427.97      7069.40
      1440.52      7352.77
      1453.07      7384.43
      1465.61      7286.79
      1478.16      7078.25
      1490.71      6914.99
      1503.26      6783.58
      1515.80      6698.85
      1528.35      6705.20
      1540.90      6729.89
      1553.44      6616.30
      1565.99      6502.80
      1578.54      6388.41
      1591.09      6075.71
      1603.63      5814.81
      1616.18      5775.30
      1628.73      5794.61
      1641.28      5776.79
      1653.82      5504.64
      1666.37      5457.10
      1678.92      5628.10
      1691.46      5572.49
      1704.01      5495.35
      1716.56      5475.07
      1729.11      5373.40
      1741.65      5243.51
      1754.20      5145.69
      1766.75      5049.16
      1779.30      4950.86
      1791.84      4850.43
      1804.39      4749.07
      1816.94      4643.14
      1829.48      4463.68
      1842.03      4328.88
      1854.58      4437.59
      1867.13      4371.97
      1879.67      4175.09
      1892.22      4100.80
      1904.77      4022.33
      1917.32      3902.51
      1929.86      3792.85
      1942.41      3725.79
      1954.96      3772.42
      1967.50      3694.69
      1980.05      3559.93
      1992.60      3627.87
      2005.15      3618.93
      2017.69      3458.52
      2030.24      3352.29
      2042.79      3283.41
      2055.33      3266.46
      2067.88      3216.77
      2080.43      3155.24
      2092.98      3151.15
      2105.52      3155.31
      2118.07      3155.08
      2130.62      3104.58
      2143.17      3058.11
      2155.71      3058.27
      2168.26      3034.39
      2180.81      2995.65
      2193.35      2957.00
      2205.90      2922.26
      2218.45      2895.12
      2231.00      2902.26
      2243.54      2902.70
      2256.09      2868.09
      2268.64      2831.29
      2281.19      2799.44
      2293.73      2790.75
      2306.28      2792.33
      2318.83      2800.74
      2331.37      2801.36
      2343.92      2809.31
      2356.47      2834.14
      2369.02      2825.86
      2381.56      2799.83
      2394.11      2765.18
      2406.66      2782.77
      2419.20      2841.47
      2431.75      2850.08
      2444.30      2845.63
      2456.85      2837.04
      2469.39      2820.18
      2481.94      2797.19
      2494.49      2764.88
      2507.04      2722.26
      2519.58      2676.28
      2532.13      2659.67
      2544.68      2644.38
      2557.22      2622.52
      2569.77      2604.08
      2582.32      2596.56
      2594.87      2619.11
      2607.41      2640.38
      2619.96      2650.04
      2632.51      2603.99
      2645.06      2558.26
      2657.60      2530.20
      2670.15      2550.60
      2682.70      2574.81
      2695.24      2564.07
      2707.79      2570.49
      2720.34      2577.74
      2732.89      2522.52
      2745.43      2484.93
      2757.98      2482.67
      2770.53      2481.40
      2783.07      2465.62
      2795.62      2413.72
      2808.17      2379.99
      2820.72      2361.82
      2833.26      2363.08
      2845.81      2357.42
      2858.36      2342.34
      2870.91      2347.21
      2883.45      2345.41
      2896.00      2316.72
      2908.55      2281.33
      2921.09      2248.91
      2933.64      2242.48
      2946.19      2221.72
      2958.74      2186.82
      2971.28      2187.32
      2983.83      2187.24
      2996.38      2169.21
      3008.93      2174.64
      3021.47      2184.44
      3034.02      2167.23
      3046.57      2155.21
      3059.11      2150.48
      3071.66      2145.09
      3084.21      2144.49
      3096.76      2153.17
      3109.30      2166.59
      3121.85      2174.52
      3134.40      2156.89
      3146.95      2132.49
      3159.49      2105.71
      3172.04      2089.69
      3184.59      2080.99
      3197.13      2080.88
      3209.68      2081.35
      3222.23      2080.20
      3234.78      2073.84
      3247.32      2090.29
      3259.87      2117.70
      3272.42      2080.96
      3284.97      2047.92
      3297.51      2029.14
      3310.06      2006.67
      3322.61      2018.43
      3335.15      1991.54
      3347.70      1974.84
      3360.25      1981.80
      3372.80      1922.45
      3385.34      1928.43
      3397.89      1904.72
      3410.44      1914.74
      3422.98      1884.53
      3435.53      1874.05
      3448.08      1858.79
      3460.63      1826.18
      3473.17      1819.66
      3485.72      1802.18
      3498.27      1786.32
      3510.82      1750.47
      3523.36      1786.07
      3535.91      1780.56
      3548.46      1786.39
      3561.00      1774.82
      3573.55      1756.04
      3586.10      1736.74
      3598.65      1724.28
      3611.19      1726.38
      3623.74      1690.45
      3636.29      1675.08
      3648.84      1680.76
      3661.38      1653.07
      3673.93      1640.20
      3686.48      1634.56
      3699.02      1624.23
      3711.57      1625.19
      3724.12      1645.87
      3736.67      1666.74
      3749.21      1731.19
      3761.76      1771.67
      3774.31      1817.13
      3786.86      1888.92
      3799.40      1806.70
      3811.95      2015.20
      3824.50      1955.00
      3837.04      1766.62
      3849.59      2058.03
      3862.14      2219.18
      3874.69      2084.93
      3887.23      1784.59
      3899.78      1901.53
      3912.33      2156.09
      3924.87      2164.34
      3937.42      2160.71
      3949.97      2121.79
      3962.52      1845.32
      3975.06      1756.66
      3987.61      2043.78
      4000.16      2152.72
      4012.71      2097.80
      4025.25      2057.88
      4037.80      2136.54
      4050.35      2175.08
      4062.89      2157.36
      4075.44      2125.67
      4087.99      1961.82
      4100.54      1677.41
      4113.08      1826.53
      4125.63      2039.90
      4138.18      2014.61
      4150.73      2000.61
      4163.27      2022.24
      4175.82      2020.44
      4188.37      2012.97
      4200.91      2002.23
      4213.46      2002.04
      4226.01      1992.72
      4238.56      1975.56
      4251.10      1965.49
      4263.65      1924.97
      4276.20      1934.19
      4288.74      1922.48
      4301.29      1889.77
      4313.84      1839.89
      4326.39      1674.80
      4338.93      1458.57
      4351.48      1594.70
      4364.03      1808.67
      4376.58      1794.33
      4389.12      1779.78
      4401.67      1808.87
      4414.22      1781.27
      4426.76      1750.01
      4439.31      1728.64
      4451.86      1709.46
      4464.41      1651.99
      4476.95      1618.97
      4489.50      1659.22
      4502.05      1666.59
      4514.60      1658.40
      4527.14      1656.36
      4539.69      1631.25
      4552.24      1625.99
      4564.78      1609.06
      4577.33      1588.94
      4589.88      1579.53
      4602.43      1563.86
      4614.97      1553.91
      4627.52      1542.58
      4640.07      1529.98
      4652.62      1524.89
      4665.16      1499.72
      4677.71      1488.33
      4690.26      1486.21
      4702.81      1478.19
      4715.35      1464.77
      4727.90      1455.73
      4740.45      1438.71
      4752.99      1433.28
      4765.54      1425.80
      4778.09      1410.14
      4790.64      1402.42
      4803.18      1390.96
      4815.73      1380.23
      4828.28      1372.23
      4840.82      1320.92
      4853.37      1162.95
      4865.92      1091.45
      4878.47      1251.95
      4891.01      1314.43
      4903.56      1301.13
      4916.11      1277.79
      4928.66      1268.64
      4941.20      1295.00
      4953.75      1292.24
      4966.30      1287.29
      4978.84      1278.64
      4991.39      1271.67
      5003.94      1251.96
      5016.49      1243.06
      5029.03      1248.37
      5041.58      1232.52
      5054.13      1208.88
      5066.67      1205.32
      5079.22      1198.65
      5091.77      1179.53
      5104.32      1163.63
      5116.86      1166.65
      5129.41      1161.24
      5141.96      1159.50
      5154.51      1159.63
      5167.05      1162.14
      5179.60      1154.70
      5192.15      1147.91
      5204.69      1136.55
      5217.24      1122.14
      5229.79      1116.98
      5242.34      1109.30
      5254.88      1099.05
      5267.43      1099.67
      5279.98      1092.73
      5292.53      1088.96
      5305.07      1083.20
      5317.62      1075.00
      5330.17      1065.15
      5342.71      1060.47
      5355.26      1058.09
      5367.81      1053.63
      5380.36      1042.56
      5392.90      1036.14
      5405.45      1032.30
      5418.00      1022.77
      5430.55      1014.31
      5443.09      1006.15
      5455.64      1002.36
      5468.19      988.562
      5480.73      991.117
      5493.28      989.506
      5505.83      978.920
      5518.38      971.536
      5530.92      960.537
      5543.47      956.729
      5556.02      954.295
      5568.57      953.242
      5581.11      948.346
      5593.66      948.030
      5606.21      945.628
      5618.75      949.355
      5631.30      932.574
      5643.85      933.692
      5656.40      930.200
      5668.94      937.211
      5681.49      930.249
      5694.04      931.210
      5706.58      918.467
      5719.13      918.316
      5731.68      917.901
      5744.23      902.479
      5756.77      902.212
      5769.32      897.036
      5781.87      890.359
      5794.41      886.429
      5806.96      884.633
      5819.51      883.506
      5832.06      875.834
      5844.60      868.122
      5857.15      861.981
      5869.70      848.586
      5882.25      837.049
      5894.79      839.734
      5907.34      840.889
      5919.89      839.513
      5932.44      834.652
      5944.98      829.449
      5957.53      824.622
      5970.08      819.583
      5982.62      814.868
      5995.17      811.354
      6007.72      808.804
      6020.27      805.270
      6032.81      793.254
      6045.36      786.235
      6057.91      787.553
      6070.45      789.995
      6083.00      792.231
      6095.55      793.127
      6108.10      791.580
      6120.64      786.583
      6133.19      771.646
      6145.74      761.051
      6158.29      756.472
      6170.83      746.712
      6183.38      739.322
      6195.93      740.615
      6208.47      740.063
      6221.02      737.122
      6233.57      729.138
      6246.12      721.263
      6258.66      714.429
      6271.21      710.634
      6283.76      709.681
      6296.30      712.508
      6308.85      706.833
      6321.40      698.674
      6333.95      697.525
      6346.49      695.129
      6359.04      691.187
      6371.59      689.635
      6384.14      688.347
      6396.68      686.661
      6409.23      683.806
      6421.78      680.846
      6434.32      679.057
      6446.87      674.541
      6459.42      667.966
      6471.97      663.519
      6484.51      659.051
      6497.06      653.687
      6509.61      645.756
      6522.16      633.569
      6534.70      611.595
      6547.25      592.693
      6559.80      581.784
      6572.34      600.694
      6584.89      620.278
      6597.44      631.801
      6609.99      634.335
      6622.53      633.546
      6635.08      632.498
      6647.63      625.067
      6660.18      614.300
      6672.72      609.309
      6685.27      607.012
      6697.82      606.892
      6710.36      606.449
      6722.91      605.576
      6735.46      604.097
      6748.01      603.540
      6760.55      603.144
      6773.10      600.531
      6785.65      599.648
      6798.20      601.432
      6810.74      604.758
      6823.29      611.574
      6835.84      624.193
      6848.38      610.229
      6860.93      583.656
      6873.48      567.641
      6886.03      563.987
      6898.57      571.953
      6911.12      578.231
      6923.67      579.409
      6936.21      571.163
      6948.76      566.584
      6961.31      563.492
      6973.86      558.318
      6986.40      552.772
      6998.95      547.900
      7011.50      549.697
      7024.05      549.287
      7036.59      542.164
      7049.14      538.840
      7061.69      537.118
      7074.23      534.389
      7086.78      532.570
      7099.33      531.602
      7111.88      530.124
      7124.42      526.833
      7136.97      521.017
      7149.52      519.531
      7162.07      518.760
      7174.61      514.834
      7187.16      512.549
      7199.71      511.445
      7212.25      508.246
      7224.80      502.321
      7237.35      493.186
      7249.90      488.569
      7262.44      487.159
      7274.99      489.748
      7287.54      491.883
      7300.09      493.030
      7312.63      491.865
      7325.18      489.546
      7337.73      486.289
      7350.27      484.081
      7362.82      482.957
      7375.37      483.664
      7387.92      481.049
      7400.46      476.842
      7413.01      475.256
      7425.56      473.239
      7438.11      470.322
      7450.65      468.053
      7463.20      465.755
      7475.75      462.759
      7488.29      459.093
      7500.84      457.476
      7513.39      466.584
      7525.94      476.470
      7538.48      485.376
      7551.03      492.032
      7563.58      490.074
      7576.12      470.824
      7588.67      431.252
      7601.22      398.026
      7613.77      429.651
      7626.31      446.481
      7638.86      441.467
      7651.41      441.525
      7663.96      432.822
      7676.50      406.454
      7689.05      407.312
      7701.60      418.918
      7714.15      422.048
      7726.69      423.339
      7739.24      423.834
      7751.79      424.133
      7764.33      422.118
      7776.88      416.491
      7789.43      413.997
      7801.98      413.404
      7814.52      414.445
      7827.07      413.274
      7839.62      410.547
      7852.16      410.017
      7864.71      408.753
      7877.26      405.699
      7889.81      403.119
      7902.35      401.648
      7914.90      402.796
      7927.45      401.788
      7939.99      399.170
      7952.54      396.986
      7965.09      396.597
      7977.64      398.564
      7990.18      400.599
      8002.73      401.159
      8015.28      398.053
      8027.83      397.616
      8040.37      399.221
      8052.92      401.217
      8065.47      401.310
      8078.02      398.689
      8090.56      393.634
      8103.11      389.696
      8115.66      390.210
      8128.20      390.313
      8140.75      389.248
      8153.30      384.833
      8165.85      383.534
      8178.39      385.931
      8190.94      385.616
      8203.49      383.742
      8216.03      380.364
      8228.58      380.767
      8241.13      383.040
      8253.68      384.385
      8266.22      379.497
      8278.77      369.153
      8291.32      364.558
      8303.86      364.699
      8316.41      370.265
      8328.96      361.292
      8341.51      348.733
      8354.05      349.004
      8366.60      354.453
      8379.15      361.735
      8391.70      357.722
      8404.24      352.993
      8416.79      351.702
      8429.34      352.100
      8441.88      352.109
      8454.43      348.674
      8466.98      344.925
      8479.53      342.040
      8492.07      344.359
      8504.62      345.365
      8517.17      343.130
      8529.72      347.092
      8542.26      348.867
      8554.81      337.229
      8567.36      334.480
      8579.90      338.951
      8592.45      341.618
      8605.00      344.666
      8617.55      348.163
      8630.09      344.976
      8642.64      337.992
      8655.19      327.521
      8667.73      327.194
      8680.28      334.714
      8692.83      346.874
      8705.38      350.593
      8717.92      342.363
      8730.47      331.762
      8743.02      323.387
      8755.57      322.205
      8768.11      324.952
      8780.66      330.998
      8793.21      342.423
      8805.76      344.749
      8818.30      334.986
      8830.85      319.755
      8843.40      307.705
      8855.94      305.974
      8868.49      309.710
      8881.04      316.168
      8893.59      322.365
      8906.13      329.232
      8918.68      335.644
      8931.23      331.817
      8943.78      326.822
      8956.32      324.591
      8968.87      316.183
      8981.42      302.714
      8993.96      282.775
      9006.51      280.129
      9019.06      294.905
      9031.61      314.433
      9044.15      322.898
      9056.70      310.490
      9069.25      302.535
      9081.80      299.748
      9094.34      306.010
      9106.89      307.834
      9119.44      304.249
      9131.98      295.231
      9144.53      288.969
      9157.08      289.365
      9169.63      297.466
      9182.17      305.003
      9194.72      301.545
      9207.27      289.649
      9219.81      275.101
      9232.36      277.604
      9244.91      284.348
      9257.46      292.902
      9270.00      308.688
      9282.55      318.055
      9295.10      303.198
      9307.65      289.119
      9320.19      282.069
      9332.74      300.818
      9345.29      303.146
      9357.83      280.941
      9370.38      286.867
      9382.93      303.645
      9395.48      322.256
      9408.02      310.303
      9420.57      282.442
      9433.12      269.264
      9445.66      268.562
      9458.21      279.841
      9470.76      290.588
      9483.31      294.166
      9495.85      282.655
      9508.40      274.340
      9520.95      268.873
      9533.50      265.927
      9546.04      269.492
      9558.59      278.820
      9571.14      280.382
      9583.69      279.598
      9596.23      278.310
      9608.78      274.861
      9621.33      271.236
      9633.87      270.940
      9646.42      271.842
