# spectrum  Type     U-V    B-V    V-R    V-I    V-J    V-K
# ---------------------------------------------------------
# bpgs_66  M1.5V    2.65   1.45   1.07   2.14   3.14   4.01
#
# lambda (Angstroms)  flux (phot/lambda)
#----------------------------------------------------------
PHOTLAM
      1985.67    0.0459158
      1997.48     0.138082
      2009.29     0.249930
      2021.10     0.202121
      2032.91     0.200657
      2044.72     0.260364
      2056.53     0.329377
      2068.34     0.458152
      2080.15     0.555644
      2091.96     0.601463
      2103.77     0.391307
      2115.58     0.195530
      2127.39     0.516038
      2139.20     0.660184
      2151.01     0.202888
      2162.82     0.155378
      2174.63     0.210572
      2186.44     0.101974
      2198.25     0.181247
      2210.06     0.268003
      2221.87    0.0901852
      2233.68    0.0218175
      2245.49     0.238957
      2257.30     0.583052
      2269.11     0.581404
      2280.92     0.590477
      2292.73     0.243063
      2304.55     0.147077
      2316.36     0.267537
      2328.17     0.817681
      2339.98     0.895606
      2351.79     0.394625
      2363.60     0.650850
      2375.41     0.962630
      2387.22     0.890940
      2399.03     0.652211
      2410.84     0.226799
      2422.65     0.675449
      2434.46     0.705166
      2446.27     0.630751
      2458.08     0.989256
      2469.89      1.08804
      2481.70      1.08838
      2493.51     0.844816
      2505.32     0.928219
      2517.13     0.929717
      2528.94     0.953590
      2540.75      1.45915
      2552.56      1.48600
      2564.37      1.57071
      2576.18      1.28830
      2587.99     0.982068
      2599.80      1.18463
      2611.61      1.26202
      2623.42      2.04467
      2635.23      2.62508
      2647.04      3.61265
      2658.85      3.46984
      2670.66      3.71266
      2682.47      3.62476
      2694.28      3.95377
      2706.09      3.38870
      2717.90      3.40229
      2729.71      3.05913
      2741.52      3.61893
      2753.33      4.21034
      2765.14      5.14890
      2776.95      5.66564
      2788.76      8.39417
      2800.58      21.9076
      2812.39      9.65776
      2824.20      5.18525
      2836.01      5.68026
      2847.82      7.02745
      2859.63      7.26367
      2871.44      7.80014
      2883.25      7.65021
      2895.06      7.65067
      2906.87      8.28614
      2918.68      10.6565
      2930.49      11.3921
      2942.30      10.4823
      2954.11      8.59924
      2965.92      8.39072
      2977.73      8.19622
      2989.54      11.0595
      3001.35      11.0238
      3013.16      10.5169
      3024.97      10.0419
      3036.78      14.6132
      3048.59      13.1734
      3060.40      10.3463
      3072.21      11.3455
      3084.02      14.4990
      3095.83      15.1643
      3107.64      20.3188
      3119.45      20.0553
      3131.26      15.4654
      3143.07      12.9235
      3154.88      20.7531
      3166.69      14.6765
      3178.50      17.1991
      3190.31      21.9258
      3202.12      25.6655
      3213.93      24.6466
      3225.74      25.9701
      3237.55      29.7490
      3249.36      27.1535
      3261.17      24.0261
      3272.99      27.2230
      3284.80      29.9116
      3296.61      31.3664
      3308.42      34.6459
      3320.23      37.9503
      3332.04      38.7050
      3343.85      40.0384
      3355.66      38.2716
      3367.47      38.1101
      3379.28      42.7948
      3391.09      47.4520
      3402.90      51.0150
      3414.71      48.9292
      3426.52      47.7984
      3438.33      43.3416
      3450.14      47.1335
      3461.95      50.5370
      3473.76      51.6641
      3485.57      53.8541
      3497.38      59.2467
      3509.19      62.9530
      3521.00      61.5339
      3532.81      68.3099
      3544.62      78.5641
      3556.43      68.0727
      3568.24      56.9149
      3580.05      53.5400
      3591.86      56.7285
      3603.67      61.8202
      3615.48      65.5564
      3627.29      69.1194
      3639.10      66.1094
      3650.91      72.6130
      3662.72      79.3086
      3674.53      76.2903
      3686.34      78.6605
      3698.15      75.7067
      3709.96      66.6838
      3721.77      61.0776
      3733.58      58.2857
      3745.39      61.0131
      3757.20      72.9495
      3769.01      83.5409
      3780.82      87.9070
      3792.64      90.1757
      3804.45      89.8913
      3816.26      77.6849
      3828.07      71.6619
      3839.88      79.1981
      3851.69      81.1538
      3863.50      83.2690
      3875.31      88.2913
      3887.12      87.0078
      3898.93      95.5875
      3910.74      99.6545
      3922.55      91.3764
      3934.36      91.2347
      3946.17      98.1067
      3957.98      99.8353
      3969.79      115.984
      3981.60      150.264
      3993.41      165.302
      4005.22      179.729
      4017.03      183.703
      4028.84      179.641
      4040.65      182.146
      4052.46      188.972
      4064.27      191.931
      4076.08      195.862
      4087.89      200.892
      4099.70      196.022
      4111.51      201.342
      4123.32      206.305
      4135.13      205.221
      4146.94      213.023
      4158.75      215.375
      4170.56      216.336
      4182.37      215.109
      4194.18      214.650
      4205.99      192.234
      4217.80      149.126
      4229.61      141.969
      4241.42      172.580
      4253.23      176.442
      4265.04      187.359
      4276.85      190.181
      4288.66      196.282
      4300.48      201.489
      4312.29      225.560
      4324.10      243.713
      4335.91      262.043
      4347.72      268.107
      4359.53      279.800
      4371.34      284.440
      4383.15      281.691
      4394.96      293.183
      4406.77      310.056
      4418.58      329.039
      4430.39      336.142
      4442.20      350.061
      4454.01      358.685
      4465.82      398.553
      4477.63      428.790
      4489.44      444.674
      4501.25      457.438
      4513.06      458.914
      4524.87      451.082
      4536.68      460.854
      4548.49      498.543
      4560.30      535.408
      4572.11      544.587
      4583.92      543.017
      4595.73      556.589
      4607.54      575.508
      4619.35      570.802
      4631.16      566.849
      4642.97      565.140
      4654.78      577.294
      4666.59      568.425
      4678.40      569.275
      4690.21      587.196
      4702.02      591.881
      4713.83      590.514
      4725.64      589.856
      4737.45      582.509
      4749.26      566.940
      4761.07      516.048
      4772.89      486.500
      4784.70      515.669
      4796.51      542.747
      4808.32      545.136
      4820.13      547.994
      4831.94      550.598
      4843.75      564.994
      4855.56      578.238
      4867.37      589.638
      4879.18      607.001
      4890.99      632.317
      4902.80      656.293
      4914.61      660.912
      4926.42      679.827
      4938.23      683.373
      4950.04      635.375
      4961.85      588.139
      4973.66      593.848
      4985.47      591.269
      4997.28      574.826
      5009.09      564.803
      5020.90      581.141
      5032.71      584.280
      5044.52      590.653
      5056.33      578.888
      5068.14      570.717
      5079.95      577.526
      5091.76      578.190
      5103.57      570.398
      5115.38      586.933
      5127.19      592.672
      5139.00      601.265
      5150.81      605.948
      5162.62      560.394
      5174.43      528.069
      5186.24      595.370
      5198.05      607.202
      5209.86      658.622
      5221.67      758.923
      5233.48      782.673
      5245.29      788.247
      5257.11      759.898
      5268.92      765.946
      5280.73      838.448
      5292.54      855.407
      5304.35      876.498
      5316.16      871.898
      5327.97      855.681
      5339.78      885.249
      5351.59      935.698
      5363.40      960.017
      5375.21      998.800
      5387.02      1005.59
      5398.83      979.184
      5410.64      1017.61
      5422.45      1069.95
      5434.26      1049.25
      5446.07      1004.82
      5457.88      977.631
      5469.69      1003.14
      5481.50      1027.51
      5493.31      1037.13
      5505.12      1013.96
      5516.93      1028.50
      5528.74      1061.88
      5540.55      1077.10
      5552.36      1094.77
      5564.17      1100.57
      5575.98      1100.66
      5587.79      1073.08
      5599.60      1049.13
      5611.41      1077.59
      5623.22      1101.88
      5635.03      1117.54
      5646.84      1152.16
      5658.65      1180.19
      5670.46      1179.61
      5682.27      1207.37
      5694.08      1227.45
      5705.89      1246.26
      5717.70      1275.03
      5729.51      1301.59
      5741.32      1357.62
      5753.13      1372.90
      5764.94      1381.34
      5776.75      1387.98
      5788.57      1397.19
      5800.38      1404.97
      5812.19      1398.98
      5824.00      1384.69
      5835.81      1358.76
      5847.62      1310.08
      5859.43      1240.79
      5871.24      1120.82
      5883.05      1029.60
      5894.86      1031.17
      5906.67      1097.60
      5918.48      1206.11
      5930.29      1254.92
      5942.10      1284.10
      5953.91      1303.11
      5965.72      1333.21
      5977.53      1375.00
      5989.34      1403.00
      6001.15      1429.29
      6012.96      1469.96
      6024.77      1504.52
      6036.58      1528.31
      6048.39      1553.01
      6060.20      1575.71
      6072.01      1584.67
      6083.82      1589.12
      6095.63      1588.98
      6107.44      1592.07
      6119.25      1593.07
      6131.06      1562.93
      6142.87      1519.05
      6154.68      1457.87
      6166.49      1401.28
      6178.30      1351.18
      6190.11      1322.08
      6201.92      1296.39
      6213.73      1262.44
      6225.54      1250.01
      6237.35      1264.06
      6249.16      1305.01
      6260.97      1356.58
      6272.79      1410.80
      6284.60      1471.45
      6296.41      1541.08
      6308.22      1603.99
      6320.03      1660.73
      6331.84      1701.03
      6343.65      1721.78
      6355.46      1709.63
      6367.27      1694.95
      6379.08      1686.24
      6390.89      1734.85
      6402.70      1795.20
      6414.51      1851.89
      6426.32      1893.95
      6438.13      1924.05
      6449.94      1962.82
      6461.75      2000.70
      6473.56      2026.02
      6485.37      2055.79
      6497.18      2093.35
      6508.99      2150.82
      6520.80      2203.06
      6532.61      2195.49
      6544.42      2179.75
      6556.23      2163.45
      6568.04      2156.58
      6579.85      2154.47
      6591.66      2151.35
      6603.47      2140.15
      6615.28      2112.59
      6627.09      2081.34
      6638.90      2047.32
      6650.71      2008.23
      6662.52      1966.87
      6674.33      1922.49
      6686.14      1879.64
      6697.95      1838.72
      6709.76      1802.16
      6721.57      1770.03
      6733.38      1748.52
      6745.19      1737.37
      6757.00      1737.03
      6768.82      1722.70
      6780.63      1701.68
      6792.44      1677.07
      6804.25      1656.42
      6816.06      1643.29
      6827.87      1638.73
      6839.68      1636.23
      6851.49      1617.12
      6863.30      1607.19
      6875.11      1624.67
      6886.92      1678.42
      6898.73      1758.16
      6910.54      1839.84
      6922.35      1920.61
      6934.16      1997.58
      6945.97      2058.08
      6957.78      2101.47
      6969.59      2127.22
      6981.40      2150.61
      6993.21      2187.19
      7005.02      2242.14
      7016.83      2317.59
      7028.64      2355.79
      7040.45      2375.38
      7052.26      2383.97
      7064.07      2358.54
      7075.88      2277.60
      7087.69      2223.56
      7099.50      2185.58
      7111.31      2145.75
      7123.12      2107.34
      7134.93      2073.78
      7146.74      2094.33
      7158.55      2156.29
      7170.36      2214.42
      7182.17      2265.06
      7193.98      2296.81
      7205.79      2343.27
      7217.60      2405.63
      7229.41      2454.20
      7241.22      2502.05
      7253.03      2566.67
      7264.84      2634.66
      7276.65      2704.43
      7288.46      2764.68
      7300.28      2818.68
      7312.09      2864.34
      7323.90      2895.43
      7335.71      2902.78
      7347.52      2930.28
      7359.33      2970.86
      7371.14      3012.02
      7382.95      3048.99
      7394.76      3074.87
      7406.57      3099.01
      7418.38      3121.53
      7430.19      3137.59
      7442.00      3151.81
      7453.81      3165.19
      7465.62      3176.21
      7477.43      3185.64
      7489.24      3208.44
      7501.05      3231.32
      7512.86      3232.76
      7524.67      3241.70
      7536.48      3264.16
      7548.29      3255.56
      7560.10      3215.78
      7571.91      3084.69
      7583.72      2971.65
      7595.53      2926.67
      7607.34      3134.34
      7619.15      3453.26
      7630.96      3375.33
      7642.77      3231.69
      7654.58      3147.53
      7666.39      3028.28
      7678.20      2889.73
      7690.01      2906.54
      7701.82      2970.64
      7713.63      3036.40
      7725.44      3082.68
      7737.25      3104.93
      7749.06      3104.46
      7760.88      3104.00
      7772.69      3143.75
      7784.49      3179.09
      7796.31      3200.02
      7808.12      3212.56
      7819.93      3222.79
      7831.74      3242.85
      7843.55      3270.31
      7855.36      3308.29
      7867.17      3341.39
      7878.98      3370.98
      7890.79      3401.67
      7902.60      3427.42
      7914.41      3439.78
      7926.22      3470.99
      7938.03      3518.47
      7949.84      3544.25
      7961.65      3564.52
      7973.46      3587.68
      7985.27      3607.82
      7997.08      3623.52
      8008.89      3643.09
      8020.70      3668.02
      8032.51      3712.06
      8044.32      3750.47
      8056.13      3775.01
      8067.94      3783.03
      8079.75      3779.57
      8091.56      3762.10
      8103.37      3753.28
      8115.18      3769.04
      8126.99      3775.64
      8138.80      3770.70
      8150.61      3729.24
      8162.42      3678.89
      8174.23      3630.25
      8186.04      3611.23
      8197.85      3621.38
      8209.66      3639.28
      8221.47      3664.11
      8233.28      3701.91
      8245.10      3764.99
      8256.90      3850.74
      8268.71      3780.77
      8280.52      3666.40
      8292.34      3670.05
      8304.15      3689.56
      8315.96      3705.34
      8327.76      3698.09
      8339.58      3680.05
      8351.39      3682.10
      8363.20      3700.42
      8375.01      3745.63
      8386.82      3787.82
      8398.63      3817.76
      8410.44      3767.65
      8422.25      3718.78
      8434.06      3734.42
      8445.87      3734.60
      8457.68      3714.84
      8469.49      3699.14
      8481.30      3685.25
      8493.11      3672.87
      8504.92      3652.16
      8516.73      3620.85
      8528.54      3634.20
      8540.35      3669.33
      8552.16      3715.23
      8563.97      3747.51
      8575.78      3753.75
      8587.59      3763.65
      8599.40      3779.87
      8611.21      3821.22
      8623.02      3845.87
      8634.83      3816.85
      8646.64      3783.07
      8658.45      3753.44
      8670.26      3778.66
      8682.07      3814.19
      8693.88      3833.80
      8705.69      3842.91
      8717.50      3844.58
      8729.31      3874.50
      8741.12      3899.55
      8752.93      3865.74
      8764.74      3854.12
      8776.55      3881.71
      8788.37      3867.02
      8800.18      3838.56
      8811.99      3852.42
      8823.80      3874.45
      8835.61      3899.53
      8847.42      3925.96
      8859.23      3946.79
      8871.04      3928.23
      8882.85      3902.25
      8894.66      3881.18
      8906.47      3853.52
      8918.28      3822.06
      8930.09      3818.40
      8941.90      3820.98
      8953.71      3820.14
      8965.52      3832.18
      8977.33      3859.09
      8989.14      3866.24
      9000.95      3881.94
      9012.76      3964.21
      9024.57      4054.48
      9036.38      4140.55
      9048.19      4095.65
      9060.00      3990.41
      9071.81      3924.18
      9083.62      3904.38
      9095.43      3962.73
      9107.24      4013.57
      9119.05      4047.77
      9130.86      4006.21
      9142.67      3958.89
      9154.48      3940.46
      9166.29      3994.14
      9178.10      4104.09
      9189.91      4139.48
      9201.72      4138.29
      9213.53      4089.12
      9225.34      4050.38
      9237.15      4025.81
      9248.96      3950.14
      9260.78      3847.17
      9272.58      3713.23
      9284.40      3582.84
      9296.21      3464.71
      9308.02      3378.28
      9319.83      3341.12
      9331.64      3497.00
      9343.45      3615.97
      9355.26      3587.61
      9367.07      3644.37
      9378.88      3762.13
      9390.69      3852.75
      9402.50      3855.39
      9414.31      3641.61
      9426.12      3540.75
      9437.93      3563.96
      9449.74      3649.45
      9461.55      3720.53
      9473.36      3668.20
      9485.17      3621.36
      9496.98      3600.32
      9508.79      3647.63
      9520.60      3718.40
      9532.41      3762.47
      9544.22      3782.30
      9556.03      3770.51
      9567.84      3795.18
      9579.65      3834.93
      9591.46      3836.40
      9603.27      3848.42
      9615.08      3900.41
      9626.89      3907.43
      9638.70      3889.14
      9650.51      3953.41
      9662.32      4041.45
      9674.13      4134.09
      9685.94      4141.52
      9697.75      4067.78
      9709.56      4055.39
      9721.37      4063.67
      9733.18      4067.87
      9744.99      4081.24
      9756.80      4107.56
      9768.62      4136.24
      9780.43      4169.22
      9792.24      4218.38
      9804.04      4270.20
      9815.86      4323.83
      9827.67      4322.67
      9839.48      4290.99
      9851.29      4274.36
      9863.10      4246.40
      9874.91      4187.17
      9886.72      4137.76
      9898.53      4098.61
      9910.34      4067.37
      9922.15      4061.41
      9933.96      4123.86
      9945.77      4159.89
      9957.58      4162.19
      9969.39      4163.55
      9981.20      4168.48
      9993.01      4190.13
      10004.8      4205.20
      10016.6      4208.74
      10028.4      4212.31
      10040.3      4216.81
      10052.1      4228.96
      10063.9      4255.83
      10075.7      4307.67
      10087.5      4315.36
      10099.3      4295.29
      10111.1      4278.27
      10122.9      4259.88
      10134.7      4235.28
      10146.5      4249.82
      10158.4      4289.17
      10170.2      4253.67
      10182.0      4213.46
      10193.8      4228.56
      10205.6      4241.76
      10217.4      4245.02
      10229.2      4226.00
      10241.0      4205.15
      10252.8      4212.63
      10264.6      4205.44
      10276.5      4174.12
      10288.3      4181.21
      10300.1      4199.25
      10311.9      4168.93
      10323.7      4139.78
      10335.5      4130.00
      10347.3      4171.54
      10359.1      4235.07
      10370.9      4212.03
      10382.7      4181.74
      10394.6      4184.21
      10406.4      4214.47
      10418.2      4265.98
      10430.0      4294.91
      10441.8      4317.22
      10453.6      4341.66
      10465.4      4352.83
      10477.2      4348.58
      10489.0      4335.68
      10500.8      4321.53
      10512.7      4313.54
      10524.5      4333.95
      10536.3      4394.02
      10548.1      4395.03
      10559.9      4370.43
      10571.7      4382.85
      10583.5      4377.39
