# spectrum  Type     U-V    B-V    V-R    V-I    V-J    V-K
# ---------------------------------------------------------
# bpgs_46  G2V      0.79   0.56   0.38   0.71   1.08   1.40
#
# lambda (Angstroms)  flux (phot/lambda)
#----------------------------------------------------------
PHOTLAM
      895.930  3.26928e-11
      908.286  1.00776e-10
      920.641  1.96650e-10
      932.996  4.28873e-10
      945.352  7.34784e-10
      957.707  1.11709e-09
      970.062  1.76545e-09
      982.417  2.57162e-09
      994.773  3.82938e-09
      1007.13  5.37352e-09
      1019.48  7.63296e-09
      1031.84  1.03834e-08
      1044.19  1.47745e-08
      1056.55  2.03752e-08
      1068.90  2.85397e-08
      1081.26  3.89849e-08
      1093.61  2.24737e-07
      1105.97  5.63268e-07
      1118.32  8.65935e-07
      1130.68  1.13072e-06
      1143.04  1.45997e-06
      1155.39  1.95277e-06
      1167.75  2.52627e-06
      1180.10  3.17306e-06
      1192.46  3.98063e-06
      1204.81  5.03623e-06
      1217.17  6.46056e-06
      1229.52  8.51349e-06
      1241.88  1.09489e-05
      1254.23  1.38775e-05
      1266.59  1.72299e-05
      1278.94  2.10579e-05
      1291.30  2.60925e-05
      1303.65  3.17547e-05
      1316.01  3.81669e-05
      1328.36  4.54233e-05
      1340.72  5.35305e-05
      1353.07  6.36410e-05
      1365.43  7.58626e-05
      1377.79  9.06669e-05
      1390.14  0.000108936
      1402.50  0.000129610
      1414.85  0.000154037
      1427.21  0.000183125
      1439.56  0.000216598
      1451.92  0.000258040
      1464.27  0.000304311
      1476.63  0.000356921
      1488.98  0.000422978
      1501.34  0.000885339
      1513.69   0.00290302
      1526.05   0.00501309
      1538.40   0.00692702
      1550.76   0.00752609
      1563.11   0.00809960
      1575.47   0.00947725
      1587.82    0.0112081
      1600.18    0.0131386
      1612.53    0.0151052
      1624.89    0.0170073
      1637.25    0.0187855
      1649.60    0.0201978
      1661.96    0.0554414
      1674.31     0.204049
      1686.67     0.326881
      1699.02     0.417617
      1711.38     0.490955
      1723.73     0.573773
      1736.09     0.682124
      1748.44     0.718207
      1760.80     0.745332
      1773.15     0.905960
      1785.51     0.992478
      1797.86     0.962563
      1810.22     0.874488
      1822.57     0.801350
      1834.93     0.821921
      1847.28     0.922983
      1859.64      1.07258
      1872.00      1.18937
      1884.35      1.31060
      1896.71      1.45146
      1909.06      1.62764
      1921.42      1.76101
      1933.77      1.66886
      1946.13      1.62079
      1958.48      1.67023
      1970.84      2.02344
      1983.19      2.35752
      1995.55      2.46183
      2007.90      3.36599
      2020.26      3.61778
      2032.61      4.11476
      2044.97      5.04507
      2057.32      5.30277
      2069.68      6.23790
      2082.03      7.84152
      2094.39      8.82924
      2106.74      9.44508
      2119.10      11.0998
      2131.46      10.4719
      2143.81      13.4382
      2156.17      12.4566
      2168.52      11.3994
      2180.88      14.6507
      2193.23      15.7062
      2205.59      15.6022
      2217.94      14.8948
      2230.30      19.9644
      2242.65      20.3708
      2255.01      17.9713
      2267.36      12.9052
      2279.72      16.5477
      2292.07      16.6251
      2304.43      17.5372
      2316.78      17.2397
      2329.14      17.0865
      2341.49      13.6310
      2353.85      17.8360
      2366.20      16.9238
      2378.56      15.4666
      2390.92      15.8317
      2403.27      14.3930
      2415.63      18.6277
      2427.98      24.0216
      2440.34      22.2479
      2452.69      17.8888
      2465.05      17.8674
      2477.40      18.7950
      2489.76      16.6855
      2502.11      21.2263
      2514.47      16.5869
      2526.82      15.9981
      2539.18      20.2521
      2551.53      25.9530
      2563.89      35.1173
      2576.24      45.1580
      2588.60      43.1116
      2600.95      32.1365
      2613.31      32.1549
      2625.67      37.8030
      2638.02      72.7394
      2650.38      86.1691
      2662.73      87.8239
      2675.09      87.7150
      2687.44      84.1727
      2699.80      91.2986
      2712.15      84.4860
      2724.51      70.6015
      2736.86      61.5704
      2749.22      52.2199
      2761.57      82.9030
      2773.93      81.8626
      2786.28      52.4263
      2798.64      29.4784
      2810.99      62.4642
      2823.35      102.491
      2835.70      112.989
      2848.06      64.4152
      2860.42      99.4988
      2872.77      124.606
      2885.13      118.510
      2897.48      187.466
      2909.84      209.918
      2922.19      184.703
      2934.55      192.087
      2946.90      184.806
      2959.26      203.385
      2971.61      174.131
      2983.97      168.820
      2996.32      167.608
      3008.68      165.215
      3021.03      157.923
      3033.39      223.266
      3045.74      217.576
      3058.10      197.088
      3070.45      209.911
      3082.81      215.028
      3095.16      166.079
      3107.52      209.850
      3119.88      231.118
      3132.23      232.789
      3144.59      236.533
      3156.94      228.991
      3169.30      243.455
      3181.65      249.086
      3194.01      253.370
      3206.36      251.740
      3218.72      246.429
      3231.07      272.590
      3243.43      298.482
      3255.78      305.930
      3268.14      305.017
      3280.49      318.471
      3292.85      334.881
      3305.20      325.064
      3317.56      315.632
      3329.91      311.959
      3342.27      315.990
      3354.62      305.797
      3366.98      306.505
      3379.34      330.804
      3391.69      341.732
      3404.05      335.988
      3416.40      335.047
      3428.76      315.644
      3441.11      308.211
      3453.47      321.473
      3465.82      320.899
      3478.18      316.398
      3490.53      338.125
      3502.89      357.583
      3515.24      354.227
      3527.60      377.346
      3539.95      404.551
      3552.31      374.354
      3564.66      324.999
      3577.02      328.112
      3589.38      363.237
      3601.73      359.552
      3614.09      363.578
      3626.44      382.149
      3638.80      399.021
      3651.15      437.434
      3663.51      443.330
      3675.86      436.772
      3688.22      446.305
      3700.57      427.606
      3712.93      400.718
      3725.28      369.927
      3737.64      356.030
      3749.99      403.405
      3762.35      463.876
      3774.70      484.953
      3787.06      464.892
      3799.41      453.414
      3811.77      379.868
      3824.12      323.014
      3836.48      373.833
      3848.83      421.949
      3861.19      432.675
      3873.55      434.513
      3885.90      457.106
      3898.26      487.094
      3910.61      434.712
      3922.97      346.717
      3935.32      395.004
      3947.68      431.844
      3960.03      401.151
      3972.39      541.049
      3984.74      677.206
      3997.10      715.804
      4009.45      737.279
      4021.81      743.775
      4034.16      730.428
      4046.52      714.051
      4058.87      734.468
      4071.23      779.867
      4083.58      775.594
      4095.94      758.638
      4108.29      781.350
      4120.65      784.715
      4133.01      797.473
      4145.36      806.458
      4157.72      792.987
      4170.07      778.415
      4182.43      781.213
      4194.78      797.794
      4207.14      798.042
      4219.49      768.741
      4231.85      769.255
      4244.20      769.853
      4256.56      760.931
      4268.91      753.760
      4281.27      702.330
      4293.62      649.732
      4305.98      731.711
      4318.33      794.993
      4330.69      764.844
      4343.04      810.700
      4355.40      840.740
      4367.75      797.545
      4380.11      786.657
      4392.47      810.186
      4404.82      844.241
      4417.18      865.749
      4429.53      876.072
      4441.89      866.483
      4454.24      873.305
      4466.60      905.537
      4478.95      926.753
      4491.31      956.684
      4503.66      963.118
      4516.02      925.472
      4528.37      922.764
      4540.73      946.709
      4553.08      964.800
      4565.44      961.032
      4577.79      949.213
      4590.15      957.467
      4602.51      979.191
      4614.86      989.932
      4627.21      973.058
      4639.57      957.417
      4651.93      951.886
      4664.28      946.107
      4676.64      958.181
      4688.99      957.725
      4701.35      972.521
      4713.70      994.810
      4726.06      1001.85
      4738.41      1007.27
      4750.77      1005.86
      4763.12      1019.64
      4775.48      1035.53
      4787.83      1041.60
      4800.19      1051.35
      4812.54      1062.98
      4824.90      1064.62
      4837.25      1015.14
      4849.61      921.012
      4861.97      918.451
      4874.32      955.946
      4886.68      987.828
      4899.03      991.411
      4911.39      973.435
      4923.74      990.799
      4936.10      1005.99
      4948.45      1000.21
      4960.81      989.566
      4973.16      988.428
      4985.52      986.903
      4997.87      966.382
      5010.23      967.276
      5022.58      979.362
      5034.94      983.231
      5047.29      991.028
      5059.65      977.130
      5072.00      971.211
      5084.36      979.557
      5096.71      971.836
      5109.07      965.480
      5121.43      947.318
      5133.78      949.685
      5146.14      948.357
      5158.49      885.027
      5170.85      882.686
      5183.20      926.639
      5195.56      955.887
      5207.91      961.186
      5220.27      961.025
      5232.62      981.632
      5244.98      968.853
      5257.33      929.277
      5269.69      952.677
      5282.04      995.656
      5294.40      1011.39
      5306.75      1011.68
      5319.11      981.718
      5331.46      991.301
      5343.82      1015.34
      5356.18      1010.59
      5368.53      1010.89
      5380.89      1008.63
      5393.24      984.247
      5405.60      994.914
      5417.95      1028.09
      5430.31      1041.24
      5442.66      1043.74
      5455.02      1045.39
      5467.37      1031.08
      5479.73      1028.96
      5492.08      1038.27
      5504.44      1030.78
      5516.79      1025.70
      5529.15      1040.51
      5541.50      1050.18
      5553.86      1038.68
      5566.21      1029.09
      5578.57      1023.88
      5590.93      1021.88
      5603.28      1028.32
      5615.64      1037.44
      5627.99      1026.70
      5640.35      1037.66
      5652.70      1025.50
      5665.06      1028.87
      5677.41      1038.83
      5689.77      1023.99
      5702.12      1035.12
      5714.48      1047.44
      5726.83      1045.93
      5739.19      1028.44
      5751.54      1023.24
      5763.90      1022.50
      5776.25      1029.05
      5788.61      1039.78
      5800.96      1050.98
      5813.32      1056.02
      5825.67      1055.89
      5838.03      1050.29
      5850.39      1038.71
      5862.74      1024.62
      5875.10      1008.74
      5887.45      1007.21
      5899.81      1016.29
      5912.16      1029.61
      5924.52      1039.12
      5936.87      1041.06
      5949.23      1042.57
      5961.58      1043.09
      5973.94      1040.64
      5986.29      1037.64
      5998.65      1035.32
      6011.00      1041.73
      6023.36      1048.71
      6035.71      1051.75
      6048.07      1050.72
      6060.42      1048.32
      6072.78      1050.57
      6085.13      1050.46
      6097.49      1045.61
      6109.84      1033.30
      6122.20      1020.37
      6134.56      1013.99
      6146.91      1015.81
      6159.27      1023.90
      6171.62      1032.70
      6183.98      1039.11
      6196.33      1040.46
      6208.69      1038.70
      6221.04      1034.81
      6233.40      1027.62
      6245.75      1022.64
      6258.11      1020.93
      6270.46      1023.26
      6282.82      1025.36
      6295.17      1024.16
      6307.53      1026.65
      6319.88      1032.11
      6332.24      1040.46
      6344.60      1046.29
      6356.95      1047.66
      6369.30      1049.25
      6381.66      1050.41
      6394.02      1049.60
      6406.37      1048.09
      6418.73      1046.39
      6431.08      1046.98
      6443.44      1046.54
      6455.79      1042.61
      6468.15      1040.85
      6480.50      1041.18
      6492.86      1044.44
      6505.21      1038.59
      6517.57      1019.27
      6529.92      990.246
      6542.28      965.567
      6554.63      963.661
      6566.99      974.559
      6579.34      993.487
      6591.70      1008.16
      6604.05      1019.31
      6616.41      1025.77
      6628.76      1030.03
      6641.12      1033.08
      6653.48      1035.42
      6665.83      1037.86
      6678.19      1040.30
      6690.54      1040.65
      6702.90      1040.27
      6715.25      1039.91
      6727.61      1041.36
      6739.96      1042.61
      6752.32      1036.08
      6764.67      1030.08
      6777.03      1027.49
      6789.38      1031.88
      6801.74      1038.03
      6814.09      1040.50
      6826.45      1036.35
      6838.80      1025.97
      6851.16      1011.19
      6863.52      1004.24
      6875.87      1016.22
      6888.23      1031.73
      6900.58      1044.11
      6912.94      1034.11
      6925.29      1023.87
      6937.65      1017.77
      6950.00      1014.52
      6962.36      1008.99
      6974.71      994.223
      6987.07      984.244
      6999.42      980.335
      7011.78      988.766
      7024.13      997.845
      7036.49      1003.32
      7048.84      1004.49
      7061.20      1003.90
      7073.55      1003.95
      7085.91      1004.18
      7098.26      1003.98
      7110.62      999.182
      7122.98      987.175
      7135.33      960.742
      7147.69      928.928
      7160.04      899.743
      7172.40      901.425
      7184.75      917.509
      7197.11      945.899
      7209.46      952.960
      7221.82      949.861
      7234.17      942.119
      7246.53      941.852
      7258.88      948.603
      7271.24      953.930
      7283.59      962.076
      7295.95      976.420
      7308.30      986.656
      7320.66      992.026
      7333.02      986.308
      7345.37      977.955
      7357.73      968.648
      7370.08      962.289
      7382.44      958.027
      7394.79      956.659
      7407.15      957.429
      7419.50      959.459
      7431.86      961.193
      7444.21      959.295
      7456.57      951.413
      7468.92      942.800
      7481.28      937.174
      7493.63      944.224
      7505.99      954.705
      7518.34      966.355
      7530.70      968.835
      7543.05      949.217
      7555.41      882.874
      7567.76      789.665
      7580.12      696.347
      7592.47      688.359
      7604.83      736.295
      7617.19      843.408
      7629.54      922.231
      7641.90      976.781
      7654.25      989.634
      7666.61      981.418
      7678.96      958.585
      7691.32      940.312
      7703.67      928.990
      7716.03      929.064
      7728.38      924.223
      7740.74      917.007
      7753.09      911.768
      7765.45      908.953
      7777.80      908.731
      7790.16      907.928
      7802.51      911.123
      7814.87      925.667
      7827.22      936.117
      7839.58      941.343
      7851.94      937.450
      7864.29      932.011
      7876.65      926.953
      7889.00      919.200
      7901.36      910.811
      7913.71      905.251
      7926.07      900.465
      7938.42      895.879
      7950.78      889.556
      7963.13      887.899
      7975.49      898.454
      7987.84      907.101
      8000.20      911.084
      8012.55      899.343
      8024.91      893.327
      8037.26      899.460
      8049.62      908.660
      8061.97      916.582
      8074.33      916.977
      8086.69      908.802
      8099.04      897.458
      8111.39      914.241
      8123.75      925.983
      8136.11      914.948
      8148.46      910.210
      8160.82      910.255
      8173.17      914.980
      8185.53      916.763
      8197.88      914.293
      8210.24      913.541
      8222.59      915.308
      8234.95      921.822
      8247.30      921.199
      8259.66      914.206
      8272.01      900.900
      8284.37      889.385
      8296.72      883.024
      8309.08      878.776
      8321.43      876.232
      8333.79      876.697
      8346.14      876.741
      8358.50      876.036
      8370.85      872.207
      8383.21      868.473
      8395.57      866.274
      8407.92      863.355
      8420.28      859.948
      8432.63      855.936
      8444.99      851.703
      8457.34      847.200
      8469.70      843.020
      8482.05      837.356
      8494.41      826.454
      8506.76      815.849
      8519.12      807.755
      8531.47      814.437
      8543.83      824.432
      8556.18      834.287
      8568.54      837.939
      8580.89      838.556
      8593.25      840.805
      8605.61      836.621
      8617.96      824.616
      8630.32      810.841
      8642.67      801.817
      8655.03      806.566
      8667.38      817.238
      8679.74      829.695
      8692.09      831.039
      8704.45      826.403
      8716.80      815.999
      8729.16      813.933
      8741.51      815.171
      8753.87      815.293
      8766.22      811.614
      8778.58      805.136
      8790.93      806.503
      8803.29      811.607
      8815.64      819.843
      8828.00      824.256
      8840.36      825.864
      8852.71      825.360
      8865.06      824.314
      8877.42      823.159
      8889.78      827.020
      8902.13      831.168
      8914.49      830.305
      8926.84      816.146
      8939.20      791.258
      8951.55      766.383
      8963.91      748.708
      8976.26      745.201
      8988.62      757.865
      9000.97      780.605
      9013.33      811.789
      9025.68      830.300
      9038.04      830.775
      9050.39      810.141
      9062.75      792.691
      9075.10      800.127
      9087.46      811.262
      9099.82      820.275
      9112.17      808.374
      9124.53      793.342
      9136.88      780.539
      9149.24      786.349
      9161.59      803.313
      9173.95      830.524
      9186.30      843.738
      9198.66      842.017
      9211.01      838.141
      9223.37      834.589
      9235.72      832.810
      9248.08      824.753
      9260.43      811.640
      9272.79      792.642
      9285.14      756.836
      9297.50      700.849
      9309.85      653.746
      9322.21      625.734
      9334.56      643.798
      9346.92      688.611
      9359.28      750.872
      9371.63      803.885
      9383.98      827.693
      9396.34      801.912
      9408.70      768.006
      9421.05      742.179
      9433.41      762.146
      9445.76      788.045
      9458.12      810.962
      9470.47      802.783
      9482.83      781.070
      9495.18      749.748
      9507.54      740.275
      9519.89      746.751
      9532.25      756.982
      9544.60      766.155
      9556.96      772.335
      9569.31      770.698
      9581.67      764.378
      9594.02      753.545
      9606.38      742.520
      9618.74      733.723
      9631.09      739.320
      9643.45      757.487
      9655.80      793.280
      9668.16      812.265
      9680.51      816.623
      9692.87      801.356
      9705.22      782.782
      9717.58      764.593
      9729.93      751.254
      9742.29      742.245
      9754.64      740.347
      9767.00      740.841
      9779.35      742.430
      9791.71      742.922
      9804.06      741.572
      9816.42      737.768
      9828.78      737.471
      9841.13      738.659
      9853.49      738.574
      9865.84      735.196
      9878.19      728.820
      9890.55      726.958
