# spectrum  Type     U-V    B-V    V-R    V-I    V-J    V-K
# ---------------------------------------------------------
# bpgs_33  F6V      0.42   0.37   0.28   0.55   0.81   1.04
#
# lambda (Angstroms)  flux (phot/lambda)
#----------------------------------------------------------
PHOTLAM
      895.930  4.85366e-10
      908.286  1.49615e-09
      920.641  2.80411e-09
      932.996  5.56987e-09
      945.352  8.90150e-09
      957.707  1.27520e-08
      970.062  1.88353e-08
      982.417  2.62366e-08
      994.773  3.69483e-08
      1007.13  4.97545e-08
      1019.48  6.73321e-08
      1031.84  8.81809e-08
      1044.19  1.19503e-07
      1056.55  1.58538e-07
      1068.90  2.11048e-07
      1081.26  2.79443e-07
      1093.61  4.17623e-06
      1105.97  1.14093e-05
      1118.32  1.72664e-05
      1130.68  2.18417e-05
      1143.04  2.76706e-05
      1155.39  3.65920e-05
      1167.75  4.62453e-05
      1180.10  5.66657e-05
      1192.46  6.94133e-05
      1204.81  8.68164e-05
      1217.17  0.000112827
      1229.52  0.000179527
      1241.88  0.000269066
      1254.23  0.000383724
      1266.59  0.000491953
      1278.94  0.000595469
      1291.30  0.000722987
      1303.65  0.000863914
      1316.01   0.00102175
      1328.36   0.00119916
      1340.72   0.00139488
      1353.07   0.00163021
      1365.43   0.00190426
      1377.79   0.00222629
      1390.14   0.00262668
      1402.50   0.00307038
      1414.85   0.00356694
      1427.21   0.00413721
      1439.56   0.00478192
      1451.92   0.00558585
      1464.27   0.00645451
      1476.63   0.00739307
      1488.98   0.00857962
      1501.34    0.0118190
      1513.69    0.0228021
      1526.05    0.0337334
      1538.40    0.0430887
      1550.76    0.0451912
      1563.11    0.0479804
      1575.47    0.0571927
      1587.82    0.0670677
      1600.18    0.0769837
      1612.53    0.0858603
      1624.89    0.0937590
      1637.25     0.100332
      1649.60     0.104669
      1661.96     0.467288
      1674.31      2.02831
      1686.67      3.26457
      1699.02      4.11265
      1711.38      4.74311
      1723.73      5.47665
      1736.09      6.50158
      1748.44      6.76474
      1760.80      6.86727
      1773.15      8.06952
      1785.51      8.46792
      1797.86      7.67245
      1810.22      6.43975
      1822.57      5.57374
      1834.93      6.12729
      1847.28      7.43566
      1859.64      9.10736
      1872.00      10.0109
      1884.35      10.7952
      1896.71      11.6298
      1909.06      12.6532
      1921.42      13.2731
      1933.77      12.0061
      1946.13      11.5042
      1958.48      12.1328
      1970.84      14.4005
      1983.19      16.2958
      1995.55      16.2675
      2007.90      15.4274
      2020.26      14.4339
      2032.61      15.0580
      2044.97      15.2454
      2057.32      15.1938
      2069.68      28.5029
      2082.03      42.3726
      2094.39      41.6344
      2106.74      42.5807
      2119.10      45.4339
      2131.46      44.1981
      2143.81      43.8008
      2156.17      46.8534
      2168.52      46.7162
      2180.88      46.1580
      2193.23      51.3801
      2205.59      54.9651
      2217.94      55.8534
      2230.30      58.9320
      2242.65      60.1501
      2255.01      54.3170
      2267.36      52.2448
      2279.72      52.9643
      2292.07      52.6668
      2304.43      52.3075
      2316.78      52.0726
      2329.14      49.6543
      2341.49      46.0485
      2353.85      41.5090
      2366.20      40.8283
      2378.56      43.8451
      2390.92      44.1586
      2403.27      43.4069
      2415.63      41.9842
      2427.98      50.2862
      2440.34      62.1849
      2452.69      62.1815
      2465.05      59.7535
      2477.40      57.0279
      2489.76      64.2750
      2502.11      71.6283
      2514.47      67.6376
      2526.82      62.7398
      2539.18      58.9060
      2551.53      63.8690
      2563.89      72.2711
      2576.24      83.3703
      2588.60      85.2649
      2600.95      81.2917
      2613.31      71.7513
      2625.67      84.3843
      2638.02      122.472
      2650.38      140.991
      2662.73      150.016
      2675.09      149.404
      2687.44      147.546
      2699.80      144.868
      2712.15      140.061
      2724.51      131.117
      2736.86      116.751
      2749.22      119.018
      2761.57      126.143
      2773.93      125.113
      2786.28      117.164
      2798.64      106.559
      2810.99      128.157
      2823.35      154.769
      2835.70      173.635
      2848.06      179.838
      2860.42      181.820
      2872.77      199.171
      2885.13      217.270
      2897.48      232.858
      2909.84      242.500
      2922.19      247.880
      2934.55      246.430
      2946.90      252.182
      2959.26      263.246
      2971.61      267.155
      2983.97      268.350
      2996.32      267.604
      3008.68      278.922
      3021.03      294.727
      3033.39      304.281
      3045.74      307.493
      3058.10      305.319
      3070.45      315.600
      3082.81      325.339
      3095.16      323.909
      3107.52      332.048
      3119.88      345.172
      3132.23      346.439
      3144.59      343.352
      3156.94      337.718
      3169.30      355.048
      3181.65      377.192
      3194.01      382.153
      3206.36      376.317
      3218.72      362.924
      3231.07      360.915
      3243.43      373.301
      3255.78      410.584
      3268.14      417.683
      3280.49      435.048
      3292.85      457.235
      3305.20      453.680
      3317.56      444.605
      3329.91      441.004
      3342.27      446.001
      3354.62      443.712
      3366.98      438.732
      3379.34      453.849
      3391.69      459.323
      3404.05      453.799
      3416.40      457.926
      3428.76      452.102
      3441.11      443.737
      3453.47      456.224
      3465.82      456.682
      3478.18      451.010
      3490.53      465.094
      3502.89      482.299
      3515.24      477.297
      3527.60      490.794
      3539.95      520.425
      3552.31      515.544
      3564.66      476.811
      3577.02      464.172
      3589.38      494.931
      3601.73      493.270
      3614.09      488.170
      3626.44      495.873
      3638.80      503.918
      3651.15      532.038
      3663.51      539.326
      3675.86      537.916
      3688.22      541.091
      3700.57      537.874
      3712.93      535.457
      3725.28      525.042
      3737.64      527.118
      3749.99      571.981
      3762.35      611.500
      3774.70      640.016
      3787.06      633.251
      3799.41      660.569
      3811.77      657.811
      3824.12      564.932
      3836.48      598.004
      3848.83      715.984
      3861.19      744.216
      3873.55      681.292
      3885.90      661.031
      3898.26      726.620
      3910.61      704.185
      3922.97      581.518
      3935.32      624.650
      3947.68      679.225
      3960.03      592.369
      3972.39      706.087
      3984.74      895.392
      3997.10      959.278
      4009.45      984.988
      4021.81      984.012
      4034.16      978.131
      4046.52      976.099
      4058.87      983.489
      4071.23      992.718
      4083.58      916.135
      4095.94      857.214
      4108.29      913.576
      4120.65      963.278
      4133.01      1003.20
      4145.36      1015.25
      4157.72      1003.79
      4170.07      992.304
      4182.43      1000.40
      4194.78      1020.81
      4207.14      1020.59
      4219.49      1003.31
      4231.85      1013.51
      4244.20      1037.65
      4256.56      1047.09
      4268.91      1032.92
      4281.27      987.905
      4293.62      951.086
      4305.98      987.798
      4318.33      961.580
      4330.69      881.361
      4343.04      914.118
      4355.40      1002.63
      4367.75      1014.33
      4380.11      997.057
      4392.47      1015.33
      4404.82      1035.26
      4417.18      1048.00
      4429.53      1046.72
      4441.89      1035.21
      4454.24      1026.33
      4466.60      1044.03
      4478.95      1059.87
      4491.31      1080.24
      4503.66      1096.45
      4516.02      1069.80
      4528.37      1051.66
      4540.73      1067.58
      4553.08      1090.73
      4565.44      1085.10
      4577.79      1073.91
      4590.15      1078.32
      4602.51      1094.92
      4614.86      1107.36
      4627.21      1103.83
      4639.57      1086.30
      4651.93      1074.22
      4664.28      1063.54
      4676.64      1072.19
      4688.99      1075.57
      4701.35      1081.79
      4713.70      1108.50
      4726.06      1111.99
      4738.41      1108.77
      4750.77      1097.25
      4763.12      1102.31
      4775.48      1123.25
      4787.83      1120.72
      4800.19      1130.63
      4812.54      1145.46
      4824.90      1124.76
      4837.25      1047.82
      4849.61      920.497
      4861.97      920.693
      4874.32      1004.87
      4886.68      1047.85
      4899.03      1063.83
      4911.39      1056.37
      4923.74      1057.89
      4936.10      1069.89
      4948.45      1069.25
      4960.81      1065.89
      4973.16      1065.37
      4985.52      1055.97
      4997.87      1039.87
      5010.23      1031.56
      5022.58      1045.91
      5034.94      1059.36
      5047.29      1066.47
      5059.65      1048.57
      5072.00      1029.18
      5084.36      1023.24
      5096.71      1025.60
      5109.07      1025.81
      5121.43      996.360
      5133.78      992.427
      5146.14      1004.63
      5158.49      982.383
      5170.85      972.184
      5183.20      981.485
      5195.56      1003.06
      5207.91      1009.27
      5220.27      998.441
      5232.62      1002.73
      5244.98      1003.76
      5257.33      974.501
      5269.69      976.314
      5282.04      1010.05
      5294.40      1030.03
      5306.75      1025.85
      5319.11      1004.53
      5331.46      1012.17
      5343.82      1030.14
      5356.18      1026.89
      5368.53      1020.33
      5380.89      1022.46
      5393.24      1003.15
      5405.60      993.350
      5417.95      1011.09
      5430.31      1021.25
      5442.66      1029.73
      5455.02      1020.67
      5467.37      999.862
      5479.73      1008.14
      5492.08      1012.28
      5504.44      1008.40
      5516.79      1019.17
      5529.15      1029.11
      5541.50      1034.06
      5553.86      1034.03
      5566.21      1037.40
      5578.57      1040.25
      5590.93      1017.98
      5603.28      1015.89
      5615.64      1030.49
      5627.99      1016.90
      5640.35      1020.01
      5652.70      1011.84
      5665.06      999.154
      5677.41      1014.13
      5689.77      1001.74
      5702.12      1016.69
      5714.48      1025.51
      5726.83      1025.31
      5739.19      1010.70
      5751.54      1005.10
      5763.90      999.992
      5776.25      996.061
      5788.61      994.584
      5800.96      995.345
      5813.32      1000.90
      5825.67      1004.26
      5838.03      1003.34
      5850.39      988.526
      5862.74      970.302
      5875.10      954.363
      5887.45      953.625
      5899.81      963.292
      5912.16      973.349
      5924.52      979.341
      5936.87      978.621
      5949.23      979.402
      5961.58      979.784
      5973.94      976.400
      5986.29      974.420
      5998.65      974.467
      6011.00      977.826
      6023.36      980.022
      6035.71      977.679
      6048.07      976.921
      6060.42      978.507
      6072.78      986.760
      6085.13      989.636
      6097.49      983.533
      6109.84      973.462
      6122.20      963.392
      6134.56      957.771
      6146.91      952.233
      6159.27      947.344
      6171.62      948.943
      6183.98      952.408
      6196.33      956.380
      6208.69      955.277
      6221.04      951.481
      6233.40      946.444
      6245.75      942.562
      6258.11      940.273
      6270.46      939.625
      6282.82      940.545
      6295.17      944.523
      6307.53      948.680
      6319.88      952.101
      6332.24      952.015
      6344.60      952.834
      6356.95      956.145
      6369.30      956.202
      6381.66      953.355
      6394.02      945.131
      6406.37      944.030
      6418.73      950.076
      6431.08      954.922
      6443.44      953.793
      6455.79      940.500
      6468.15      933.290
      6480.50      931.089
      6492.86      934.219
      6505.21      926.582
      6517.57      902.673
      6529.92      866.566
      6542.28      833.146
      6554.63      820.255
      6566.99      830.381
      6579.34      857.384
      6591.70      884.756
      6604.05      905.620
      6616.41      914.355
      6628.76      916.617
      6641.12      917.108
      6653.48      922.560
      6665.83      929.033
      6678.19      935.378
      6690.54      935.552
      6702.90      933.798
      6715.25      932.137
      6727.61      933.223
      6739.96      935.750
      6752.32      936.424
      6764.67      939.074
      6777.03      945.617
      6789.38      957.032
      6801.74      969.024
      6814.09      976.208
      6826.45      974.368
      6838.80      963.510
      6851.16      942.752
      6863.52      926.897
      6875.87      926.808
      6888.23      934.815
      6900.58      943.421
      6912.94      934.856
      6925.29      923.375
      6937.65      912.228
      6950.00      912.179
      6962.36      912.731
      6974.71      904.011
      6987.07      893.749
      6999.42      884.685
      7011.78      888.274
      7024.13      893.473
      7036.49      896.655
      7048.84      895.269
      7061.20      891.882
      7073.55      888.807
      7085.91      885.819
      7098.26      882.745
      7110.62      878.980
      7122.98      871.699
      7135.33      856.142
      7147.69      831.251
      7160.04      803.842
      7172.40      794.163
      7184.75      800.160
      7197.11      824.110
      7209.46      832.429
      7221.82      831.226
      7234.17      819.944
      7246.53      813.636
      7258.88      813.122
      7271.24      816.078
      7283.59      821.685
      7295.95      830.854
      7308.30      840.844
      7320.66      849.942
      7333.02      853.510
      7345.37      851.517
      7357.73      843.804
      7370.08      837.649
      7382.44      833.704
      7394.79      834.278
      7407.15      837.321
      7419.50      841.666
      7431.86      844.753
      7444.21      845.166
      7456.57      841.612
      7468.92      838.236
      7481.28      836.797
      7493.63      842.395
      7505.99      851.835
      7518.34      863.700
      7530.70      867.761
      7543.05      857.394
      7555.41      817.639
      7567.76      751.720
      7580.12      677.563
      7592.47      645.066
      7604.83      658.628
      7617.19      729.209
      7629.54      795.115
      7641.90      845.998
      7654.25      855.010
      7666.61      846.812
      7678.96      827.692
      7691.32      815.345
      7703.67      810.888
      7716.03      818.612
      7728.38      819.459
      7740.74      816.410
      7753.09      813.369
      7765.45      813.638
      7777.80      817.760
      7790.16      819.134
      7802.51      818.288
      7814.87      813.735
      7827.22      809.260
      7839.58      805.044
      7851.94      801.875
      7864.29      799.514
      7876.65      798.129
      7889.00      795.394
      7901.36      793.088
      7913.71      795.259
      7926.07      796.254
      7938.42      795.292
      7950.78      793.154
      7963.13      791.222
      7975.49      790.737
      7987.84      788.805
      8000.20      785.725
      8012.55      782.057
      8024.91      781.418
      8037.26      785.543
      8049.62      794.118
      8061.97      800.641
      8074.33      795.356
      8086.69      788.625
      8099.04      781.743
      8111.39      776.391
      8123.75      768.109
      8136.11      753.531
      8148.46      745.220
      8160.82      744.815
      8173.17      764.338
      8185.53      775.331
      8197.88      771.434
      8210.24      753.203
      8222.59      742.356
      8234.95      763.305
      8247.30      772.608
      8259.66      770.347
      8272.01      758.710
      8284.37      745.367
      8296.72      732.493
      8309.08      724.081
      8321.43      719.209
      8333.79      720.009
      8346.14      719.903
      8358.50      719.468
      8370.85      727.718
      8383.21      735.420
      8395.57      735.883
      8407.92      734.453
      8420.28      731.263
      8432.63      723.252
      8444.99      715.027
      8457.34      708.186
      8469.70      711.378
      8482.05      716.946
      8494.41      717.775
      8506.76      708.982
      8519.12      693.728
      8531.47      688.764
      8543.83      690.784
      8556.18      701.679
      8568.54      708.015
      8580.89      711.945
      8593.25      717.200
      8605.61      719.073
      8617.96      716.332
      8630.32      707.059
      8642.67      696.603
      8655.03      688.564
      8667.38      692.044
      8679.74      702.464
      8692.09      705.270
      8704.45      699.238
      8716.80      681.994
      8729.16      677.612
      8741.51      680.430
      8753.87      688.582
      8766.22      688.002
      8778.58      678.911
      8790.93      676.821
      8803.29      679.266
      8815.64      686.965
      8828.00      684.584
      8840.36      677.086
      8852.71      675.184
      8865.06      678.320
      8877.42      686.859
      8889.78      694.617
      8902.13      699.296
      8914.49      695.537
      8926.84      683.791
      8939.20      665.281
      8951.55      641.513
      8963.91      617.339
      8976.26      595.295
      8988.62      587.963
      9000.97      594.903
      9013.33      629.977
      9025.68      660.441
      9038.04      678.342
      9050.39      665.569
      9062.75      647.329
      9075.10      639.843
      9087.46      642.292
      9099.82      649.174
      9112.17      643.826
      9124.53      637.805
      9136.88      634.847
      9149.24      642.464
      9161.59      654.562
      9173.95      665.980
      9186.30      673.048
      9198.66      675.005
      9211.01      670.075
      9223.37      667.565
      9235.72      674.492
      9248.08      687.350
      9260.43      697.282
      9272.79      677.482
      9285.14      637.684
      9297.50      578.734
      9309.85      532.270
      9322.21      502.987
      9334.56      510.361
      9346.92      544.313
      9359.28      596.962
      9371.63      645.279
      9383.98      669.860
      9396.34      651.974
      9408.70      608.038
      9421.05      562.624
      9433.41      561.279
      9445.76      574.958
      9458.12      598.333
      9470.47      615.336
      9482.83      626.492
      9495.18      627.651
      9507.54      623.815
      9519.89      619.094
      9532.25      627.033
      9544.60      634.803
      9556.96      637.954
      9569.31      627.010
      9581.67      610.546
      9594.02      595.799
      9606.38      587.145
      9618.74      584.508
      9631.09      584.224
      9643.45      592.194
      9655.80      615.986
      9668.16      638.890
      9680.51      656.073
      9692.87      651.597
      9705.22      640.763
      9717.58      626.549
      9729.93      614.928
      9742.29      605.033
      9754.64      597.078
      9767.00      589.548
      9779.35      582.477
      9791.71      578.101
      9804.06      577.782
      9816.42      583.773
      9828.78      589.972
      9841.13      594.331
      9853.49      591.393
      9865.84      584.418
      9878.19      574.338
      9890.55      567.472
