# spectrum  Type     U-V    B-V    V-R    V-I    V-J    V-K
# ---------------------------------------------------------
# bpgs_51  G5V      0.98   0.66   0.42   0.81   1.23   1.62
#
# lambda (Angstroms)  flux (phot/lambda)
#----------------------------------------------------------
PHOTLAM
      895.930  2.62613e-11
      908.286  8.09511e-11
      920.641  1.57964e-10
      932.996  3.44504e-10
      945.352  5.90236e-10
      957.707  8.97335e-10
      970.062  1.41817e-09
      982.417  2.06579e-09
      994.773  3.07609e-09
      1007.13  4.31641e-09
      1019.48  6.13136e-09
      1031.84  8.34073e-09
      1044.19  1.18682e-08
      1056.55  1.63674e-08
      1068.90  2.29258e-08
      1081.26  3.13159e-08
      1093.61  1.80526e-07
      1105.97  4.52459e-07
      1118.32  6.95589e-07
      1130.68  9.08285e-07
      1143.04  1.17277e-06
      1155.39  1.56867e-06
      1167.75  2.02934e-06
      1180.10  2.54886e-06
      1192.46  3.19762e-06
      1204.81  4.04557e-06
      1217.17  5.18964e-06
      1229.52  6.83878e-06
      1241.88  8.79521e-06
      1254.23  1.11477e-05
      1266.59  1.38405e-05
      1278.94  1.69155e-05
      1291.30  2.09592e-05
      1303.65  2.55073e-05
      1316.01  3.06583e-05
      1328.36  3.64882e-05
      1340.72  4.30016e-05
      1353.07  5.11223e-05
      1365.43  6.09391e-05
      1377.79  7.28312e-05
      1390.14  8.75064e-05
      1402.50  0.000104113
      1414.85  0.000123736
      1427.21  0.000147102
      1439.56  0.000173989
      1451.92  0.000207279
      1464.27  0.000244449
      1476.63  0.000286709
      1488.98  0.000339768
      1501.34  0.000711180
      1513.69   0.00233199
      1526.05   0.00402695
      1538.40   0.00556431
      1550.76   0.00604564
      1563.11   0.00650639
      1575.47   0.00761284
      1587.82   0.00900316
      1600.18    0.0105539
      1612.53    0.0121337
      1624.89    0.0136616
      1637.25    0.0150902
      1649.60    0.0162246
      1661.96    0.0445352
      1674.31     0.163909
      1686.67     0.262579
      1699.02     0.335465
      1711.38     0.394365
      1723.73     0.460881
      1736.09     0.547919
      1748.44     0.576908
      1760.80     0.598701
      1773.15     0.727731
      1785.51     0.797230
      1797.86     0.773198
      1810.22     0.702462
      1822.57     0.643720
      1834.93     0.660230
      1847.28     0.741401
      1859.64     0.861562
      1872.00     0.955395
      1884.35      1.05279
      1896.71      1.16593
      1909.06      1.30746
      1921.42      1.41460
      1933.77      1.34057
      1946.13      1.30195
      1958.48      1.34166
      1970.84      1.62538
      1983.19      1.89375
      1995.55      1.97756
      2007.90      2.70383
      2020.26      2.90610
      2032.61      3.30530
      2044.97      4.05260
      2057.32      4.25956
      2069.68      5.01080
      2082.03      6.29897
      2094.39      7.09238
      2106.74      7.58702
      2119.10      8.91625
      2131.46      8.41191
      2143.81      10.7946
      2156.17      10.0062
      2168.52      9.15688
      2180.88      11.7687
      2193.23      12.6166
      2205.59      12.5330
      2217.94      11.9648
      2230.30      16.0371
      2242.65      16.3636
      2255.01      14.4359
      2267.36      10.3665
      2279.72      13.2924
      2292.07      13.3547
      2304.43      14.0873
      2316.78      13.8484
      2329.14      13.7253
      2341.49      10.9496
      2353.85      14.3274
      2366.20      13.5945
      2378.56      12.4241
      2390.92      12.7173
      2403.27      11.5617
      2415.63      14.9632
      2427.98      19.2961
      2440.34      17.8714
      2452.69      14.3698
      2465.05      14.3526
      2477.40      15.0977
      2489.76      13.4031
      2502.11      17.0507
      2514.47      13.3239
      2526.82      12.8509
      2539.18      16.2681
      2551.53      20.8476
      2563.89      28.2092
      2576.24      36.2744
      2588.60      34.6310
      2600.95      25.8147
      2613.31      25.8296
      2625.67      30.3664
      2638.02      58.4297
      2650.38      69.2184
      2662.73      70.5481
      2675.09      70.4597
      2687.44      67.6153
      2699.80      73.3381
      2712.15      67.8657
      2724.51      56.7139
      2736.86      49.4581
      2749.22      41.9465
      2761.57      66.5955
      2773.93      65.7580
      2786.28      42.1129
      2798.64      23.6797
      2810.99      50.1770
      2823.35      82.3288
      2835.70      90.7619
      2848.06      51.7427
      2860.42      79.9255
      2872.77      100.093
      2885.13      95.1980
      2897.48      150.589
      2909.84      168.624
      2922.19      148.370
      2934.55      154.299
      2946.90      148.453
      2959.26      163.375
      2971.61      139.877
      2983.97      135.610
      2996.32      134.636
      3008.68      132.714
      3021.03      126.856
      3033.39      179.345
      3045.74      174.773
      3058.10      158.317
      3070.45      168.618
      3082.81      172.729
      3095.16      133.407
      3107.52      168.569
      3119.88      185.654
      3132.23      186.995
      3144.59      190.002
      3156.94      183.946
      3169.30      195.565
      3181.65      200.087
      3194.01      203.526
      3206.36      202.219
      3218.72      197.953
      3231.07      218.967
      3243.43      239.766
      3255.78      245.641
      3268.14      238.648
      3280.49      232.834
      3292.85      256.878
      3305.20      254.172
      3317.56      244.314
      3329.91      237.755
      3342.27      246.070
      3354.62      243.209
      3366.98      233.168
      3379.34      251.606
      3391.69      267.164
      3404.05      270.749
      3416.40      273.751
      3428.76      264.862
      3441.11      243.280
      3453.47      258.372
      3465.82      265.691
      3478.18      257.657
      3490.53      263.634
      3502.89      293.952
      3515.24      296.932
      3527.60      297.205
      3539.95      333.150
      3552.31      322.814
      3564.66      280.676
      3577.02      248.938
      3589.38      282.319
      3601.73      313.093
      3614.09      302.038
      3626.44      331.045
      3638.80      331.325
      3651.15      365.946
      3663.51      397.934
      3675.86      384.004
      3688.22      391.669
      3700.57      392.949
      3712.93      380.018
      3725.28      353.079
      3737.64      300.822
      3749.99      331.458
      3762.35      384.735
      3774.70      426.858
      3787.06      411.932
      3799.41      403.248
      3811.77      363.451
      3824.12      273.506
      3836.48      282.276
      3848.83      324.178
      3861.19      325.411
      3873.55      324.913
      3885.90      346.719
      3898.26      396.550
      3910.61      404.505
      3922.97      325.494
      3935.32      282.620
      3947.68      386.774
      3960.03      351.849
      3972.39      383.646
      3984.74      556.843
      3997.10      613.033
      4009.45      647.592
      4021.81      671.689
      4034.16      680.495
      4046.52      662.509
      4058.87      647.430
      4071.23      654.364
      4083.58      686.682
      4095.94      667.708
      4108.29      688.047
      4120.65      698.744
      4133.01      695.515
      4145.36      684.609
      4157.72      680.398
      4170.07      670.836
      4182.43      674.792
      4194.78      673.647
      4207.14      708.868
      4219.49      684.225
      4231.85      669.117
      4244.20      675.566
      4256.56      667.839
      4268.91      666.158
      4281.27      650.649
      4293.62      578.092
      4305.98      593.384
      4318.33      707.506
      4330.69      708.550
      4343.04      749.179
      4355.40      782.655
      4367.75      764.423
      4380.11      717.112
      4392.47      731.162
      4404.82      755.953
      4417.18      787.666
      4429.53      796.991
      4441.89      795.234
      4454.24      781.557
      4466.60      814.464
      4478.95      839.939
      4491.31      848.407
      4503.66      883.799
      4516.02      863.990
      4528.37      820.585
      4540.73      839.226
      4553.08      863.569
      4565.44      866.758
      4577.79      860.017
      4590.15      854.950
      4602.51      878.521
      4614.86      906.414
      4627.21      905.269
      4639.57      887.830
      4651.93      889.731
      4664.28      876.528
      4676.64      881.955
      4688.99      890.820
      4701.35      886.261
      4713.70      907.092
      4726.06      919.875
      4738.41      938.216
      4750.77      940.060
      4763.12      931.352
      4775.48      961.125
      4787.83      972.666
      4800.19      981.973
      4812.54      991.999
      4824.90      985.304
      4837.25      970.576
      4849.61      905.678
      4861.97      863.845
      4874.32      903.144
      4886.68      917.199
      4899.03      938.322
      4911.39      911.261
      4923.74      924.233
      4936.10      939.368
      4948.45      957.240
      4960.81      948.941
      4973.16      943.742
      4985.52      936.275
      4997.87      919.109
      5010.23      899.491
      5022.58      914.252
      5034.94      928.187
      5047.29      950.353
      5059.65      956.371
      5072.00      931.537
      5084.36      932.831
      5096.71      932.258
      5109.07      953.427
      5121.43      948.323
      5133.78      938.498
      5146.14      947.152
      5158.49      901.699
      5170.85      867.357
      5183.20      888.415
      5195.56      919.996
      5207.91      947.377
      5220.27      948.681
      5232.62      954.239
      5244.98      979.107
      5257.33      940.197
      5269.69      923.405
      5282.04      983.945
      5294.40      1003.76
      5306.75      1021.94
      5319.11      989.759
      5331.46      971.328
      5343.82      1003.15
      5356.18      1022.66
      5368.53      1003.84
      5380.89      1007.03
      5393.24      977.795
      5405.60      968.356
      5417.95      993.733
      5430.31      1005.58
      5442.66      1016.86
      5455.02      1028.12
      5467.37      1014.42
      5479.73      1003.97
      5492.08      1011.97
      5504.44      1014.61
      5516.79      1015.35
      5529.15      1031.51
      5541.50      1045.20
      5553.86      1048.54
      5566.21      1035.71
      5578.57      1023.76
      5590.93      1022.32
      5603.28      1035.56
      5615.64      1052.18
      5627.99      1060.96
      5640.35      1061.55
      5652.70      1051.01
      5665.06      1056.27
      5677.41      1070.98
      5689.77      1070.34
      5702.12      1062.95
      5714.48      1059.06
      5726.83      1090.34
      5739.19      1092.91
      5751.54      1086.30
      5763.90      1080.23
      5776.25      1072.79
      5788.61      1073.99
      5800.96      1080.75
      5813.32      1093.11
      5825.67      1094.13
      5838.03      1081.48
      5850.39      1070.40
      5862.74      1059.01
      5875.10      1045.36
      5887.45      1039.50
      5899.81      1042.26
      5912.16      1064.88
      5924.52      1080.39
      5936.87      1078.52
      5949.23      1077.95
      5961.58      1078.02
      5973.94      1078.09
      5986.29      1074.68
      5998.65      1068.51
      6011.00      1068.23
      6023.36      1070.53
      6035.71      1075.03
      6048.07      1078.58
      6060.42      1079.11
      6072.78      1067.41
      6085.13      1052.77
      6097.49      1036.82
      6109.84      1024.88
      6122.20      1018.53
      6134.56      1024.99
      6146.91      1029.35
      6159.27      1031.18
      6171.62      1032.97
      6183.98      1040.32
      6196.33      1057.31
      6208.69      1058.20
      6221.04      1051.73
      6233.40      1047.70
      6245.75      1047.83
      6258.11      1052.55
      6270.46      1060.11
      6282.82      1066.33
      6295.17      1067.35
      6307.53      1073.89
      6319.88      1082.23
      6332.24      1078.58
      6344.60      1078.03
      6356.95      1085.67
      6369.30      1086.48
      6381.66      1083.61
      6394.02      1078.04
      6406.37      1075.50
      6418.73      1076.31
      6431.08      1078.63
      6443.44      1082.17
      6455.79      1087.26
      6468.15      1083.70
      6480.50      1076.69
      6492.86      1076.27
      6505.21      1082.79
      6517.57      1095.30
      6529.92      1084.55
      6542.28      1065.46
      6554.63      1045.79
      6566.99      1041.60
      6579.34      1050.89
      6591.70      1069.85
      6604.05      1082.63
      6616.41      1080.74
      6628.76      1083.16
      6641.12      1084.61
      6653.48      1072.87
      6665.83      1067.34
      6678.19      1070.08
      6690.54      1069.27
      6702.90      1066.99
      6715.25      1064.05
      6727.61      1060.78
      6739.96      1058.39
      6752.32      1062.47
      6764.67      1067.04
      6777.03      1070.13
      6789.38      1062.77
      6801.74      1055.11
      6814.09      1061.04
      6826.45      1066.34
      6838.80      1067.39
      6851.16      1046.35
      6863.52      1021.31
      6875.87      1000.26
      6888.23      1009.17
      6900.58      1030.99
      6912.94      1034.77
      6925.29      1035.67
      6937.65      1036.16
      6950.00      1034.56
      6962.36      1031.38
      6974.71      1025.87
      6987.07      1025.10
      6999.42      1028.25
      7011.78      1031.76
      7024.13      1034.81
      7036.49      1036.86
      7048.84      1038.26
      7061.20      1039.59
      7073.55      1041.55
      7085.91      1042.94
      7098.26      1042.99
      7110.62      1037.08
      7122.98      1031.75
      7135.33      1032.16
      7147.69      1036.54
      7160.04      1040.93
      7172.40      1031.04
      7184.75      1021.00
      7197.11      1014.84
      7209.46      1015.97
      7221.82      1019.18
      7234.17      1020.05
      7246.53      1017.71
      7258.88      1013.32
      7271.24      1014.49
      7283.59      1017.22
      7295.95      1020.15
      7308.30      1023.78
      7320.66      1026.65
      7333.02      1024.68
      7345.37      1023.62
      7357.73      1024.28
      7370.08      1019.30
      7382.44      1014.09
      7394.79      1013.42
      7407.15      1014.50
      7419.50      1016.84
      7431.86      1021.63
      7444.21      1025.65
      7456.57      1027.56
      7468.92      1025.75
      7481.28      1023.10
      7493.63      1023.77
      7505.99      1025.69
      7518.34      1028.71
      7530.70      1033.49
      7543.05      1037.70
      7555.41      1038.99
      7567.76      1007.79
      7580.12      952.989
      7592.47      883.111
      7604.83      869.292
      7617.19      939.674
      7629.54      978.873
      7641.90      1005.16
      7654.25      1031.09
      7666.61      1023.64
      7678.96      991.693
      7691.32      998.929
      7703.67      1012.79
      7716.03      1020.47
      7728.38      1019.38
      7740.74      1014.64
      7753.09      1013.80
      7765.45      1015.27
      7777.80      1018.65
      7790.16      1018.61
      7802.51      1017.70
      7814.87      1017.36
      7827.22      1017.38
      7839.58      1017.01
      7851.94      1013.86
      7864.29      1012.95
      7876.65      1016.50
      7889.00      1012.75
      7901.36      1005.88
      7913.71      1000.65
      7926.07      994.378
      7938.42      988.105
      7950.78      995.002
      7963.13      1001.99
      7975.49      1000.80
      7987.84      995.825
      8000.20      990.035
      8012.55      991.604
      8024.91      995.071
      8037.26      999.248
      8049.62      999.634
      8061.97      998.600
      8074.33      997.830
      8086.69      993.516
      8099.04      988.722
      8111.39      1004.04
      8123.75      1016.33
      8136.11      1013.12
      8148.46      1005.59
      8160.82      996.987
      8173.17      992.798
      8185.53      987.550
      8197.88      981.650
      8210.24      992.564
      8222.59      1002.21
      8234.95      993.483
      8247.30      994.301
      8259.66      1000.29
      8272.01      988.308
      8284.37      982.084
      8296.72      990.945
      8309.08      992.510
      8321.43      988.218
      8333.79      975.169
      8346.14      977.201
      8358.50      993.721
      8370.85      989.918
      8383.21      983.780
      8395.57      984.543
      8407.92      989.580
      8420.28      996.265
      8432.63      998.346
      8444.99      996.234
      8457.34      989.177
      8469.70      982.354
      8482.05      972.667
      8494.41      953.467
      8506.76      938.367
      8519.12      927.420
      8531.47      917.439
      8543.83      912.140
      8556.18      916.084
      8568.54      928.832
      8580.89      941.584
      8593.25      936.385
      8605.61      929.904
      8617.96      924.548
      8630.32      914.388
      8642.67      901.404
      8655.03      885.430
      8667.38      898.646
      8679.74      927.692
      8692.09      924.339
      8704.45      923.499
      8716.80      936.442
      8729.16      943.191
      8741.51      940.752
      8753.87      916.506
      8766.22      910.164
      8778.58      923.347
      8790.93      930.355
      8803.29      927.675
      8815.64      907.490
      8828.00      904.597
      8840.36      913.151
      8852.71      923.858
      8865.06      929.828
      8877.42      928.537
      8889.78      925.220
      8902.13      921.581
      8914.49      919.063
      8926.84      915.135
      8939.20      910.083
      8951.55      905.321
      8963.91      908.417
      8976.26      925.053
      8988.62      915.595
      9000.97      900.636
      9013.33      919.373
      9025.68      942.884
      9038.04      962.663
      9050.39      939.300
      9062.75      911.139
      9075.10      905.481
      9087.46      908.839
      9099.82      915.453
      9112.17      909.985
      9124.53      903.954
      9136.88      900.393
      9149.24      895.809
      9161.59      893.658
      9173.95      901.045
      9186.30      900.083
      9198.66      890.676
      9211.01      888.090
      9223.37      884.563
      9235.72      875.046
      9248.08      862.748
      9260.43      852.517
      9272.79      859.748
      9285.14      846.210
      9297.50      801.742
      9309.85      757.240
      9322.21      741.659
      9334.56      809.167
      9346.92      829.321
      9359.28      809.047
      9371.63      820.924
      9383.98      848.077
      9396.34      886.764
      9408.70      854.667
      9421.05      797.389
      9433.41      783.499
      9445.76      793.059
      9458.12      819.640
      9470.47      818.166
      9482.83      808.167
      9495.18      798.937
      9507.54      815.191
      9519.89      844.326
      9532.25      848.319
      9544.60      845.292
      9556.96      838.757
      9569.31      829.234
      9581.67      823.261
      9594.02      833.734
      9606.38      843.625
      9618.74      850.356
      9631.09      846.890
      9643.45      847.382
      9655.80      861.311
      9668.16      868.994
      9680.51      870.712
      9692.87      864.212
      9705.22      855.697
      9717.58      846.776
      9729.93      840.200
      9742.29      838.859
      9754.64      849.650
      9767.00      856.548
      9779.35      857.387
      9791.71      845.815
      9804.06      841.631
      9816.42      854.942
      9828.78      853.419
      9841.13      845.835
      9853.49      844.357
      9865.84      842.495
      9878.19      839.288
      9890.55      835.388
