# spectrum  Type     U-V    B-V    V-R    V-I    V-J    V-K
# ---------------------------------------------------------
#  bpgs_3  O6      -1.34  -0.31  -0.14  -0.30  -0.78  -0.93
#
# lambda (Angstroms)  flux (phot/lambda)
#----------------------------------------------------------
PHOTLAM
      512.023      1887.06
      524.570      2145.25
      537.117      2129.35
      549.664      2260.17
      562.212      2437.17
      574.759      2500.71
      587.306      2545.37
      599.853      2662.77
      612.401      2791.05
      624.948      2920.48
      637.495      3047.63
      650.042      3137.63
      662.590      3214.76
      675.137      3272.41
      687.684      3293.61
      700.231      3315.09
      712.779      3443.62
      725.326      3640.38
      737.873      3797.20
      750.420      3816.20
      762.968      3823.50
      775.515      3859.99
      788.062      3933.20
      800.609      4006.58
      813.157      4039.32
      825.704      3973.26
      838.251      3902.81
      850.798      3863.23
      863.346      3968.63
      875.893      4092.53
      888.440      4275.12
      900.987      5068.32
      913.535      6023.55
      926.082      8393.60
      938.629      12057.5
      951.177      13709.9
      963.724      14520.2
      976.271      14123.3
      988.818      13749.0
      1001.37      13835.2
      1013.91      13969.3
      1026.46      14131.4
      1039.01      14176.6
      1051.55      13825.2
      1064.10      13576.9
      1076.65      13764.1
      1089.20      13855.6
      1101.74      13539.6
      1114.29      13195.3
      1126.84      12782.0
      1139.39      12366.2
      1151.93      12390.3
      1164.48      12245.6
      1177.03      11664.5
      1189.57      11079.3
      1202.12      10009.3
      1214.67      7395.48
      1227.22      8732.64
      1239.76      12736.4
      1252.31      14217.7
      1264.86      15291.8
      1277.41      16395.0
      1289.95      16804.1
      1302.50      16814.9
      1315.05      16381.7
      1327.59      15825.7
      1340.14      15347.5
      1352.69      15681.8
      1365.24      15799.0
      1377.78      15400.1
      1390.33      14441.3
      1402.88      13765.8
      1415.42      14291.3
      1427.97      14415.1
      1440.52      14254.6
      1453.07      14084.3
      1465.61      14200.8
      1478.16      14644.9
      1490.71      14802.3
      1503.26      14963.6
      1515.80      15294.4
      1528.35      13983.8
      1540.90      12062.5
      1553.44      11468.8
      1565.99      11619.1
      1578.54      12316.9
      1591.09      12157.0
      1603.63      11462.6
      1616.18      10135.9
      1628.73      9963.18
      1641.28      10361.6
      1653.82      10724.8
      1666.37      11001.2
      1678.92      11162.2
      1691.46      11022.9
      1704.01      10794.0
      1716.56      10540.1
      1729.11      10636.6
      1741.65      10867.3
      1754.20      11018.0
      1766.75      11030.2
      1779.30      10922.4
      1791.84      10764.5
      1804.39      10594.4
      1816.94      10420.5
      1829.48      10243.0
      1842.03      10074.4
      1854.58      9939.59
      1867.13      9822.88
      1879.67      9692.37
      1892.22      9390.51
      1904.77      9166.89
      1917.32      9097.69
      1929.86      8734.59
      1942.41      8364.42
      1954.96      8290.73
      1967.50      8106.49
      1980.05      7856.92
      1992.60      7754.72
      2005.15      7672.43
      2017.69      7575.94
      2030.24      7370.80
      2042.79      7128.97
      2055.33      6888.96
      2067.88      6726.62
      2080.43      6622.33
      2092.98      6570.42
      2105.52      6511.92
      2118.07      6428.68
      2130.62      6261.04
      2143.17      6128.08
      2155.71      6142.28
      2168.26      6096.66
      2180.81      6016.12
      2193.35      5946.27
      2205.90      5911.00
      2218.45      5913.39
      2231.00      5910.49
      2243.54      5880.51
      2256.09      5794.15
      2268.64      5698.81
      2281.19      5607.52
      2293.73      5548.69
      2306.28      5665.01
      2318.83      5927.46
      2331.37      5947.19
      2343.92      5920.76
      2356.47      5913.20
      2369.02      5746.27
      2381.56      5590.71
      2394.11      5758.19
      2406.66      5812.18
      2419.20      5752.12
      2431.75      5820.75
      2444.30      5884.87
      2456.85      5889.83
      2469.39      5858.40
      2481.94      5788.64
      2494.49      5639.42
      2507.04      5557.38
      2519.58      5538.03
      2532.13      5544.41
      2544.68      5548.18
      2557.22      5534.90
      2569.77      5431.11
      2582.32      5308.30
      2594.87      5234.88
      2607.41      5251.63
      2619.96      5307.58
      2632.51      5222.79
      2645.06      5117.21
      2657.60      5022.64
      2670.15      5016.08
      2682.70      5032.77
      2695.24      5029.61
      2707.79      4980.32
      2720.34      4906.67
      2732.89      4860.39
      2745.43      4838.45
      2757.98      4837.28
      2770.53      4767.69
      2783.07      4684.28
      2795.62      4620.86
      2808.17      4622.90
      2820.72      4643.10
      2833.26      4569.89
      2845.81      4551.03
      2858.36      4597.42
      2870.91      4517.58
      2883.45      4422.14
      2896.00      4371.76
      2908.55      4341.52
      2921.09      4307.02
      2933.64      4213.44
      2946.19      4126.83
      2958.74      4060.95
      2971.28      4053.62
      2983.83      4044.20
      2996.38      4001.51
      3008.93      3957.35
      3021.47      3912.60
      3034.02      3867.44
      3046.57      3864.72
      3059.11      3897.48
      3071.66      3899.48
      3084.21      3890.95
      3096.76      3874.84
      3109.30      3844.15
      3121.85      3820.12
      3134.40      3840.91
      3146.95      3848.90
      3159.49      3836.03
      3172.04      3775.03
      3184.59      3724.16
      3197.13      3708.01
      3209.68      3730.57
      3222.23      3742.32
      3234.78      3674.66
      3247.32      3636.73
      3259.87      3629.53
      3272.42      3580.89
      3284.97      3449.21
      3297.51      3476.22
      3310.06      3394.46
      3322.61      3465.10
      3335.15      3482.25
      3347.70      3454.66
      3360.25      3390.10
      3372.80      3384.26
      3385.34      3333.07
      3397.89      3269.61
      3410.44      3198.43
      3422.98      3188.78
      3435.53      3138.93
      3448.08      3173.95
      3460.63      3174.08
      3473.17      3140.21
      3485.72      3114.86
      3498.27      3173.26
      3510.82      3161.73
      3523.36      3109.58
      3535.91      3089.71
      3548.46      3049.91
      3561.00      2978.47
      3573.55      2903.99
      3586.10      2907.89
      3598.65      2858.63
      3611.19      2777.73
      3623.74      2737.45
      3636.29      2727.21
      3648.84      2742.70
      3661.38      2714.48
      3673.93      2653.64
      3686.48      2602.20
      3699.02      2574.44
      3711.57      2535.57
      3724.12      2549.51
      3736.67      2552.05
      3749.21      2510.92
      3761.76      2472.10
      3774.31      2536.05
      3786.86      2563.17
      3799.40      2542.71
      3811.95      2616.44
      3824.50      2557.77
      3837.04      2443.35
      3849.59      2502.43
      3862.14      2521.65
      3874.69      2432.27
      3887.23      2278.70
      3899.78      2318.70
      3912.33      2407.93
      3924.87      2345.80
      3937.42      2339.09
      3949.97      2342.29
      3962.52      2233.93
      3975.06      2223.39
      3987.61      2377.51
      4000.16      2409.09
      4012.71      2377.36
      4025.25      2330.23
      4037.80      2377.56
      4050.35      2387.03
      4062.89      2370.08
      4075.44      2324.18
      4087.99      2256.94
      4100.54      2157.86
      4113.08      2251.00
      4125.63      2363.24
      4138.18      2333.22
      4150.73      2286.59
      4163.27      2245.38
      4175.82      2219.46
      4188.37      2159.41
      4200.91      2142.66
      4213.46      2146.63
      4226.01      2159.33
      4238.56      2141.33
      4251.10      2111.47
      4263.65      2098.00
      4276.20      2086.76
      4288.74      2085.40
      4301.29      2055.15
      4313.84      2016.86
      4326.39      1915.40
      4338.93      1824.49
      4351.48      1925.10
      4364.03      1986.70
      4376.58      1981.99
      4389.12      1959.21
      4401.67      1946.72
      4414.22      1905.01
      4426.76      1865.36
      4439.31      1862.50
      4451.86      1885.18
      4464.41      1830.10
      4476.95      1773.77
      4489.50      1766.64
      4502.05      1765.66
      4514.60      1747.93
      4527.14      1700.23
      4539.69      1657.04
      4552.24      1681.50
      4564.78      1661.46
      4577.33      1644.94
      4589.88      1635.35
      4602.43      1639.01
      4614.97      1663.63
      4627.52      1653.76
      4640.07      1628.38
      4652.62      1605.81
      4665.16      1601.52
      4677.71      1562.56
      4690.26      1555.89
      4702.81      1598.79
      4715.35      1590.85
      4727.90      1587.32
      4740.45      1585.70
      4752.99      1578.51
      4765.54      1579.18
      4778.09      1566.16
      4790.64      1535.13
      4803.18      1517.50
      4815.73      1500.24
      4828.28      1471.33
      4840.82      1429.49
      4853.37      1318.09
      4865.92      1301.19
      4878.47      1368.82
      4891.01      1381.29
      4903.56      1380.44
      4916.11      1368.76
      4928.66      1366.34
      4941.20      1353.78
      4953.75      1336.33
      4966.30      1324.93
      4978.84      1310.75
      4991.39      1308.21
      5003.94      1295.23
      5016.49      1279.31
      5029.03      1280.05
      5041.58      1263.51
      5054.13      1255.02
      5066.67      1239.94
      5079.22      1232.55
      5091.77      1227.77
      5104.32      1203.14
      5116.86      1201.02
      5129.41      1198.16
      5141.96      1189.87
      5154.51      1184.33
      5167.05      1181.26
      5179.60      1174.23
      5192.15      1159.04
      5204.69      1150.81
      5217.24      1138.05
      5229.79      1127.36
      5242.34      1127.38
      5254.88      1132.60
      5267.43      1121.58
      5279.98      1110.78
      5292.53      1101.70
      5305.07      1092.19
      5317.62      1084.01
      5330.17      1080.79
      5342.71      1074.91
      5355.26      1063.62
      5367.81      1057.20
      5380.36      1054.66
      5392.90      1050.50
      5405.45      1022.24
      5418.00      1007.73
      5430.55      1017.48
      5443.09      1014.44
      5455.64      1006.46
      5468.19      997.605
      5480.73      987.323
      5493.28      979.639
      5505.83      974.322
      5518.38      977.147
      5530.92      971.033
      5543.47      970.583
      5556.02      965.501
      5568.57      967.221
      5581.11      966.880
      5593.66      952.124
      5606.21      939.598
      5618.75      937.344
      5631.30      935.348
      5643.85      928.689
      5656.40      921.589
      5668.94      914.611
      5681.49      907.710
      5694.04      900.931
      5706.58      894.131
      5719.13      887.399
      5731.68      880.763
      5744.23      871.723
      5756.77      858.440
      5769.32      849.456
      5781.87      843.066
      5794.41      838.991
      5806.96      836.968
      5819.51      836.103
      5832.06      832.240
      5844.60      824.133
      5857.15      810.327
      5869.70      799.257
      5882.25      791.857
      5894.79      792.251
      5907.34      792.940
      5919.89      792.920
      5932.44      790.020
      5944.98      786.203
      5957.53      781.515
      5970.08      772.935
      5982.62      764.506
      5995.17      760.281
      6007.72      754.931
      6020.27      749.770
      6032.81      750.352
      6045.36      749.438
      6057.91      745.538
      6070.45      743.548
      6083.00      742.534
      6095.55      742.445
      6108.10      742.995
      6120.64      740.984
      6133.19      724.871
      6145.74      713.419
      6158.29      709.363
      6170.83      703.300
      6183.38      697.662
      6195.93      694.587
      6208.47      696.890
      6221.02      701.486
      6233.57      703.579
      6246.12      700.782
      6258.66      693.129
      6271.21      685.857
      6283.76      679.795
      6296.30      675.976
      6308.85      672.891
      6321.40      671.002
      6333.95      672.751
      6346.49      672.166
      6359.04      669.264
      6371.59      667.985
      6384.14      664.663
      6396.68      657.296
      6409.23      653.044
      6421.78      649.800
      6434.32      644.897
      6446.87      639.287
      6459.42      633.147
      6471.97      626.423
      6484.51      621.274
      6497.06      618.897
      6509.61      616.258
      6522.16      608.691
      6534.70      586.628
      6547.25      573.934
      6559.80      572.651
      6572.34      590.924
      6584.89      605.500
      6597.44      608.679
      6609.99      606.646
      6622.53      601.136
      6635.08      591.105
      6647.63      577.244
      6660.18      562.869
      6672.72      558.907
      6685.27      559.851
      6697.82      564.204
      6710.36      560.237
      6722.91      555.102
      6735.46      554.151
      6748.01      556.683
      6760.55      559.100
      6773.10      551.198
      6785.65      541.795
      6798.20      533.503
      6810.74      535.542
      6823.29      540.134
      6835.84      542.853
      6848.38      529.349
      6860.93      510.562
      6873.48      507.937
      6886.03      510.450
      6898.57      515.756
      6911.12      517.039
      6923.67      517.775
      6936.21      519.452
      6948.76      520.107
      6961.31      519.090
      6973.86      513.795
      6986.40      510.698
      6998.95      509.557
      7011.50      503.783
      7024.05      498.634
      7036.59      496.665
      7049.14      491.523
      7061.69      486.437
      7074.23      486.577
      7086.78      485.332
      7099.33      482.854
      7111.88      483.237
      7124.42      480.523
      7136.97      471.859
      7149.52      466.420
      7162.07      463.406
      7174.61      463.830
      7187.16      463.790
      7199.71      462.470
      7212.25      456.897
      7224.80      451.763
      7237.35      448.476
      7249.90      445.546
      7262.44      443.277
      7274.99      442.416
      7287.54      443.628
      7300.09      445.809
      7312.63      445.787
      7325.18      442.323
      7337.73      434.788
      7350.27      427.964
      7362.82      422.975
      7375.37      422.012
      7387.92      419.838
      7400.46      416.554
      7413.01      412.142
      7425.56      408.177
      7438.11      405.263
      7450.65      404.953
      7463.20      405.852
      7475.75      407.452
      7488.29      405.117
      7500.84      401.796
      7513.39      404.340
      7525.94      406.236
      7538.48      406.790
      7551.03      409.348
      7563.58      398.531
      7576.12      359.318
      7588.67      331.330
      7601.22      324.233
      7613.77      373.261
      7626.31      400.886
      7638.86      399.602
      7651.41      391.002
      7663.96      380.190
      7676.50      369.180
      7689.05      372.675
      7701.60      381.334
      7714.15      384.106
      7726.69      385.371
      7739.24      385.091
      7751.79      379.022
      7764.33      375.642
      7776.88      378.952
      7789.43      380.653
      7801.98      379.986
      7814.52      374.352
      7827.07      373.100
      7839.62      374.803
      7852.16      370.850
      7864.71      366.384
      7877.26      362.825
      7889.81      358.540
      7902.35      354.827
      7914.90      353.629
      7927.45      352.204
      7939.99      350.519
      7952.54      348.944
      7965.09      347.188
      7977.64      345.480
      7990.18      348.005
      8002.73      350.059
      8015.28      347.232
      8027.83      347.763
      8040.37      350.053
      8052.92      348.837
      8065.47      346.153
      8078.02      342.062
      8090.56      335.250
      8103.11      330.251
      8115.66      331.623
      8128.20      335.212
      8140.75      336.943
      8153.30      325.672
      8165.85      322.230
      8178.39      328.813
      8190.94      328.511
      8203.49      324.279
      8216.03      316.252
      8228.58      315.378
      8241.13      317.532
      8253.68      315.958
      8266.22      312.475
      8278.77      308.133
      8291.32      308.499
      8303.86      309.082
      8316.41      307.556
      8328.96      302.466
      8341.51      297.070
      8354.05      296.542
      8366.60      295.545
      8379.15      294.398
      8391.70      298.512
      8404.24      302.697
      8416.79      304.458
      8429.34      298.339
      8441.88      291.117
      8454.43      291.426
      8466.98      289.280
      8479.53      286.105
      8492.07      293.065
      8504.62      296.987
      8517.17      293.143
      8529.72      291.829
      8542.26      290.834
      8554.81      287.618
      8567.36      283.769
      8579.90      278.958
      8592.45      270.475
      8605.00      268.577
      8617.55      276.246
      8630.09      276.315
      8642.64      272.745
      8655.19      267.066
      8667.73      266.007
      8680.28      268.138
      8692.83      270.466
      8705.38      270.807
      8717.92      268.957
      8730.47      270.790
      8743.02      271.761
      8755.57      267.777
      8768.11      260.709
      8780.66      254.755
      8793.21      261.542
      8805.76      264.942
      8818.30      261.568
      8830.85      252.354
      8843.40      246.723
      8855.94      252.201
      8868.49      253.770
      8881.04      252.398
      8893.59      249.070
      8906.13      249.940
      8918.68      254.396
      8931.23      249.584
      8943.78      246.727
      8956.32      251.856
      8968.87      242.946
      8981.42      230.855
      8993.96      233.642
      9006.51      238.224
      9019.06      242.405
      9031.61      243.270
      9044.15      245.643
      9056.70      251.416
      9069.25      244.415
      9081.80      235.230
      9094.34      238.187
      9106.89      240.992
      9119.44      242.587
      9131.98      244.253
      9144.53      243.619
      9157.08      239.125
      9169.63      232.039
      9182.17      226.938
      9194.72      230.563
      9207.27      229.113
      9219.81      223.572
      9232.36      220.099
      9244.91      218.755
      9257.46      220.476
      9270.00      230.137
      9282.55      236.007
      9295.10      224.107
      9307.65      217.908
      9320.19      215.680
      9332.74      208.128
      9345.29      206.551
      9357.83      214.296
      9370.38      226.191
      9382.93      234.743
      9395.48      231.669
      9408.02      215.155
      9420.57      196.308
      9433.12      202.535
      9445.66      212.785
      9458.21      221.710
      9470.76      217.549
      9483.31      213.044
      9495.85      216.126
      9508.40      211.105
      9520.95      202.408
      9533.50      198.846
      9546.04      201.375
      9558.59      209.144
      9571.14      212.006
      9583.69      213.427
      9596.23      214.431
      9608.78      210.379
      9621.33      205.894
      9633.87      209.354
      9646.42      211.295
