# spectrum  Type     U-V    B-V    V-R    V-I    V-J    V-K
# ----------------------------------------------------------
#  bpgs_11  B6V     -0.46  -0.12  -0.02  -0.06  -0.27  -0.28
#
# lambda (Angstroms)  flux (phot/lambda)
#----------------------------------------------------------
PHOTLAM
      512.023  7.46683e-06
      524.570  1.43834e-05
      537.117  2.29372e-05
      549.664  3.95798e-05
      562.212  6.05067e-05
      574.759  9.50748e-05
      587.306  0.000140537
      599.853  0.000224389
      612.401  0.000326465
      624.948  0.000494503
      637.495  0.000681003
      650.042   0.00100654
      662.590   0.00137996
      675.137   0.00189805
      687.684   0.00268564
      700.231   0.00348447
      712.779   0.00472713
      725.326   0.00625336
      737.873   0.00805654
      750.420    0.0108157
      762.968    0.0136555
      775.515    0.0175533
      788.062    0.0227858
      800.609    0.0280228
      813.157    0.0344657
      825.704    0.0438400
      838.251    0.0533466
      850.798    0.0639881
      863.346    0.0799566
      875.893    0.0966050
      888.440     0.166896
      900.987     0.795515
      913.535      1.57227
      926.082      8.94905
      938.629      30.2032
      951.177      117.778
      963.724      255.569
      976.271      513.964
      988.818      728.903
      1001.37      753.492
      1013.91      769.817
      1026.46      814.181
      1039.01      919.457
      1051.55      1219.39
      1064.10      1451.50
      1076.65      1413.60
      1089.20      1427.82
      1101.74      1672.10
      1114.29      1900.86
      1126.84      2026.19
      1139.39      2136.62
      1151.93      2212.42
      1164.48      2181.70
      1177.03      1970.04
      1189.57      1509.57
      1202.12      1028.06
      1214.67      791.663
      1227.22      1077.64
      1239.76      1712.54
      1252.31      2156.42
      1264.86      2423.89
      1277.41      2469.97
      1289.95      2429.86
      1302.50      2410.58
      1315.05      2537.26
      1327.59      2627.28
      1340.14      2679.34
      1352.69      2691.86
      1365.24      2727.67
      1377.78      2797.36
      1390.33      2779.58
      1402.88      2751.04
      1415.42      2768.79
      1427.97      2860.11
      1440.52      2981.26
      1453.07      3034.17
      1465.61      3020.44
      1478.16      2941.70
      1490.71      2918.08
      1503.26      2911.90
      1515.80      2909.76
      1528.35      2916.82
      1540.90      2924.71
      1553.44      2913.97
      1565.99      2874.02
      1578.54      2802.58
      1591.09      2708.79
      1603.63      2610.11
      1616.18      2514.24
      1628.73      2452.54
      1641.28      2416.80
      1653.82      2418.59
      1666.37      2447.23
      1678.92      2490.42
      1691.46      2467.89
      1704.01      2411.63
      1716.56      2321.40
      1729.11      2269.62
      1741.65      2244.71
      1754.20      2254.21
      1766.75      2265.01
      1779.30      2245.64
      1791.84      2010.76
      1804.39      1840.58
      1816.94      1857.51
      1829.48      1824.06
      1842.03      1793.19
      1854.58      1841.91
      1867.13      1827.39
      1879.67      1762.29
      1892.22      1718.45
      1904.77      1707.06
      1917.32      1738.35
      1929.86      1738.51
      1942.41      1723.39
      1954.96      1696.94
      1967.50      1662.44
      1980.05      1623.72
      1992.60      1589.81
      2005.15      1561.64
      2017.69      1541.35
      2030.24      1537.21
      2042.79      1532.30
      2055.33      1510.88
      2067.88      1492.68
      2080.43      1481.71
      2092.98      1495.61
      2105.52      1507.38
      2118.07      1509.85
      2130.62      1488.34
      2143.17      1471.28
      2155.71      1482.39
      2168.26      1473.59
      2180.81      1451.96
      2193.35      1426.44
      2205.90      1400.11
      2218.45      1373.05
      2231.00      1342.39
      2243.54      1327.85
      2256.09      1350.88
      2268.64      1367.05
      2281.19      1376.79
      2293.73      1376.89
      2306.28      1373.38
      2318.83      1366.09
      2331.37      1348.15
      2343.92      1329.28
      2356.47      1314.04
      2369.02      1307.64
      2381.56      1314.42
      2394.11      1355.43
      2406.66      1382.48
      2419.20      1393.51
      2431.75      1401.45
      2444.30      1398.63
      2456.85      1378.41
      2469.39      1370.11
      2481.94      1371.28
      2494.49      1387.13
      2507.04      1384.68
      2519.58      1364.45
      2532.13      1329.85
      2544.68      1306.96
      2557.22      1308.38
      2569.77      1324.54
      2582.32      1342.55
      2594.87      1349.71
      2607.41      1341.60
      2619.96      1324.82
      2632.51      1318.96
      2645.06      1321.04
      2657.60      1330.42
      2670.15      1317.93
      2682.70      1304.67
      2695.24      1309.82
      2707.79      1325.63
      2720.34      1341.05
      2732.89      1320.56
      2745.43      1301.44
      2757.98      1291.18
      2770.53      1280.80
      2783.07      1267.22
      2795.62      1246.72
      2808.17      1263.48
      2820.72      1294.46
      2833.26      1288.49
      2845.81      1275.22
      2858.36      1260.52
      2870.91      1261.71
      2883.45      1260.22
      2896.00      1243.44
      2908.55      1237.59
      2921.09      1234.60
      2933.64      1217.96
      2946.19      1205.81
      2958.74      1200.33
      2971.28      1198.19
      2983.83      1193.20
      2996.38      1181.70
      3008.93      1193.31
      3021.47      1209.20
      3034.02      1199.06
      3046.57      1189.27
      3059.11      1184.45
      3071.66      1197.39
      3084.21      1199.54
      3096.76      1176.02
      3109.30      1180.70
      3121.85      1193.94
      3134.40      1194.32
      3146.95      1192.90
      3159.49      1190.33
      3172.04      1184.00
      3184.59      1171.93
      3197.13      1152.66
      3209.68      1150.50
      3222.23      1156.42
      3234.78      1166.93
      3247.32      1179.05
      3259.87      1184.16
      3272.42      1147.62
      3284.97      1125.86
      3297.51      1131.96
      3310.06      1133.90
      3322.61      1118.13
      3335.15      1119.33
      3347.70      1128.19
      3360.25      1116.97
      3372.80      1107.67
      3385.34      1107.82
      3397.89      1109.87
      3410.44      1094.92
      3422.98      1088.09
      3435.53      1070.06
      3448.08      1074.05
      3460.63      1075.40
      3473.17      1071.11
      3485.72      1055.12
      3498.27      1054.21
      3510.82      1059.81
      3523.36      1058.50
      3535.91      1069.14
      3548.46      1067.09
      3561.00      1062.73
      3573.55      1055.74
      3586.10      1045.95
      3598.65      1050.19
      3611.19      1048.57
      3623.74      1051.00
      3636.29      1040.29
      3648.84      1034.57
      3661.38      1028.99
      3673.93      1018.73
      3686.48      1015.04
      3699.02      1026.45
      3711.57      1038.73
      3724.12      1072.86
      3736.67      1125.25
      3749.21      1196.75
      3761.76      1273.64
      3774.31      1365.77
      3786.86      1457.83
      3799.40      1391.96
      3811.95      1628.04
      3824.50      1582.46
      3837.04      1379.52
      3849.59      1702.50
      3862.14      1882.11
      3874.69      1699.31
      3887.23      1372.19
      3899.78      1528.50
      3912.33      1821.68
      3924.87      1894.35
      3937.42      1896.38
      3949.97      1820.25
      3962.52      1474.18
      3975.06      1408.81
      3987.61      1787.80
      4000.16      1961.02
      4012.71      1958.92
      4025.25      1943.81
      4037.80      1977.45
      4050.35      1968.78
      4062.89      1944.55
      4075.44      1875.14
      4087.99      1638.60
      4100.54      1376.09
      4113.08      1578.60
      4125.63      1823.36
      4138.18      1848.70
      4150.73      1855.32
      4163.27      1860.30
      4175.82      1854.01
      4188.37      1857.10
      4200.91      1844.99
      4213.46      1834.24
      4226.01      1811.65
      4238.56      1798.98
      4251.10      1795.49
      4263.65      1785.68
      4276.20      1769.72
      4288.74      1741.70
      4301.29      1715.70
      4313.84      1656.30
      4326.39      1415.51
      4338.93      1206.41
      4351.48      1441.49
      4364.03      1656.91
      4376.58      1664.25
      4389.12      1644.59
      4401.67      1649.68
      4414.22      1650.00
      4426.76      1639.63
      4439.31      1614.40
      4451.86      1595.42
      4464.41      1551.35
      4476.95      1519.22
      4489.50      1543.59
      4502.05      1545.30
      4514.60      1543.03
      4527.14      1527.19
      4539.69      1515.28
      4552.24      1497.27
      4564.78      1500.17
      4577.33      1490.75
      4589.88      1483.11
      4602.43      1472.52
      4614.97      1475.02
      4627.52      1473.94
      4640.07      1465.23
      4652.62      1457.84
      4665.16      1452.95
      4677.71      1453.09
      4690.26      1444.07
      4702.81      1430.83
      4715.35      1424.55
      4727.90      1438.22
      4740.45      1442.84
      4752.99      1425.57
      4765.54      1401.18
      4778.09      1396.95
      4790.64      1388.35
      4803.18      1370.20
      4815.73      1361.48
      4828.28      1328.79
      4840.82      1224.36
      4853.37      1007.12
      4865.92      989.801
      4878.47      1192.72
      4891.01      1283.33
      4903.56      1303.09
      4916.11      1279.96
      4928.66      1275.43
      4941.20      1293.12
      4953.75      1283.03
      4966.30      1273.76
      4978.84      1275.37
      4991.39      1272.84
      5003.94      1255.56
      5016.49      1245.87
      5029.03      1236.69
      5041.58      1221.77
      5054.13      1204.45
      5066.67      1199.10
      5079.22      1191.54
      5091.77      1175.56
      5104.32      1175.60
      5116.86      1180.47
      5129.41      1183.20
      5141.96      1193.06
      5154.51      1176.97
      5167.05      1166.61
      5179.60      1157.55
      5192.15      1143.29
      5204.69      1139.17
      5217.24      1121.81
      5229.79      1111.04
      5242.34      1093.88
      5254.88      1092.01
      5267.43      1091.29
      5279.98      1077.24
      5292.53      1080.59
      5305.07      1075.25
      5317.62      1054.19
      5330.17      1047.13
      5342.71      1043.80
      5355.26      1032.45
      5367.81      1029.44
      5380.36      1029.00
      5392.90      1022.41
      5405.45      1012.04
      5418.00      1015.24
      5430.55      1009.49
      5443.09      1011.45
      5455.64      999.490
      5468.19      997.958
      5480.73      993.225
      5493.28      989.400
      5505.83      981.362
      5518.38      975.917
      5530.92      972.871
      5543.47      974.313
      5556.02      962.805
      5568.57      960.271
      5581.11      955.509
      5593.66      943.441
      5606.21      944.097
      5618.75      949.399
      5631.30      943.126
      5643.85      939.614
      5656.40      930.194
      5668.94      926.381
      5681.49      924.492
      5694.04      926.805
      5706.58      912.805
      5719.13      910.295
      5731.68      917.443
      5744.23      896.929
      5756.77      889.403
      5769.32      887.591
      5781.87      887.856
      5794.41      887.470
      5806.96      885.615
      5819.51      882.269
      5832.06      876.127
      5844.60      865.649
      5857.15      849.674
      5869.70      843.387
      5882.25      838.439
      5894.79      826.223
      5907.34      825.834
      5919.89      833.421
      5932.44      834.010
      5944.98      831.033
      5957.53      824.919
      5970.08      821.616
      5982.62      818.585
      5995.17      813.677
      6007.72      810.627
      6020.27      808.823
      6032.81      806.437
      6045.36      803.602
      6057.91      801.092
      6070.45      808.068
      6083.00      815.914
      6095.55      818.305
      6108.10      812.362
      6120.64      801.932
      6133.19      792.696
      6145.74      786.764
      6158.29      784.068
      6170.83      779.081
      6183.38      775.508
      6195.93      776.548
      6208.47      772.860
      6221.02      767.154
      6233.57      764.124
      6246.12      758.353
      6258.66      750.238
      6271.21      750.899
      6283.76      755.458
      6296.30      762.820
      6308.85      758.960
      6321.40      751.740
      6333.95      753.209
      6346.49      750.048
      6359.04      742.585
      6371.59      741.990
      6384.14      741.700
      6396.68      739.067
      6409.23      732.306
      6421.78      726.045
      6434.32      727.393
      6446.87      725.579
      6459.42      720.554
      6471.97      715.804
      6484.51      712.054
      6497.06      709.803
      6509.61      706.576
      6522.16      692.450
      6534.70      646.481
      6547.25      620.052
      6559.80      616.107
      6572.34      644.880
      6584.89      672.199
      6597.44      687.008
      6609.99      685.710
      6622.53      680.675
      6635.08      681.347
      6647.63      676.757
      6660.18      669.851
      6672.72      671.670
      6685.27      670.023
      6697.82      662.201
      6710.36      658.671
      6722.91      656.641
      6735.46      654.869
      6748.01      650.647
      6760.55      645.059
      6773.10      640.117
      6785.65      640.033
      6798.20      645.105
      6810.74      644.381
      6823.29      642.923
      6835.84      643.026
      6848.38      628.622
      6860.93      609.496
      6873.48      605.258
      6886.03      606.532
      6898.57      611.502
      6911.12      615.359
      6923.67      615.301
      6936.21      607.832
      6948.76      602.612
      6961.31      598.065
      6973.86      591.261
      6986.40      588.715
      6998.95      590.351
      7011.50      591.156
      7024.05      589.985
      7036.59      585.754
      7049.14      582.787
      7061.69      581.165
      7074.23      581.836
      7086.78      581.400
      7099.33      579.233
      7111.88      572.917
      7124.42      564.856
      7136.97      555.958
      7149.52      555.814
      7162.07      557.333
      7174.61      553.008
      7187.16      550.166
      7199.71      548.561
      7212.25      544.829
      7224.80      539.304
      7237.35      532.033
      7249.90      530.367
      7262.44      530.594
      7274.99      530.011
      7287.54      530.359
      7300.09      531.039
      7312.63      529.830
      7325.18      525.979
      7337.73      519.353
      7350.27      517.045
      7362.82      516.739
      7375.37      517.810
      7387.92      517.925
      7400.46      517.054
      7413.01      514.246
      7425.56      511.921
      7438.11      510.630
      7450.65      509.580
      7463.20      508.235
      7475.75      505.806
      7488.29      500.664
      7500.84      497.301
      7513.39      508.585
      7525.94      517.053
      7538.48      519.607
      7551.03      515.723
      7563.58      498.588
      7576.12      457.757
      7588.67      417.818
      7601.22      397.945
      7613.77      452.569
      7626.31      483.862
      7638.86      482.732
      7651.41      479.147
      7663.96      468.392
      7676.50      446.148
      7689.05      444.967
      7701.60      452.442
      7714.15      454.736
      7726.69      456.620
      7739.24      458.240
      7751.79      456.669
      7764.33      455.754
      7776.88      457.261
      7789.43      459.719
      7801.98      460.558
      7814.52      455.114
      7827.07      450.368
      7839.62      446.335
      7852.16      440.449
      7864.71      437.647
      7877.26      440.100
      7889.81      441.947
      7902.35      442.986
      7914.90      442.542
      7927.45      439.735
      7939.99      436.015
      7952.54      436.050
      7965.09      436.159
      7977.64      435.339
      7990.18      433.635
      8002.73      431.229
      8015.28      427.854
      8027.83      422.815
      8040.37      417.145
      8052.92      413.393
      8065.47      412.478
      8078.02      414.191
      8090.56      410.370
      8103.11      409.383
      8115.66      418.846
      8128.20      416.078
      8140.75      406.660
      8153.30      401.544
      8165.85      402.027
      8178.39      407.912
      8190.94      412.652
      8203.49      412.875
      8216.03      404.781
      8228.58      409.527
      8241.13      417.050
      8253.68      407.189
      8266.22      398.861
      8278.77      394.429
      8291.32      390.903
      8303.86      392.737
      8316.41      403.795
      8328.96      404.225
      8341.51      399.143
      8354.05      393.446
      8366.60      391.474
      8379.15      392.640
      8391.70      391.452
      8404.24      385.934
      8416.79      374.686
      8429.34      376.327
      8441.88      383.531
      8454.43      389.976
      8466.98      388.761
      8479.53      382.929
      8492.07      387.493
      8504.62      387.988
      8517.17      379.691
      8529.72      383.423
      8542.26      386.559
      8554.81      373.818
      8567.36      363.911
      8579.90      360.746
      8592.45      377.687
      8605.00      395.418
      8617.55      406.890
      8630.09      392.892
      8642.64      375.979
      8655.19      375.688
      8667.73      389.369
      8680.28      407.494
      8692.83      405.419
      8705.38      399.977
      8717.92      393.346
      8730.47      372.465
      8743.02      357.906
      8755.57      369.602
      8768.11      383.331
      8780.66      393.519
      8793.21      387.080
      8805.76      386.558
      8818.30      393.507
      8830.85      378.264
      8843.40      357.194
      8855.94      338.583
      8868.49      342.793
      8881.04      359.920
      8893.59      378.012
      8906.13      385.855
      8918.68      382.603
      8931.23      377.146
      8943.78      368.441
      8956.32      354.435
      8968.87      339.019
      8981.42      323.271
      8993.96      308.898
      9006.51      312.658
      9019.06      333.669
      9031.61      358.736
      9044.15      370.216
      9056.70      356.804
      9069.25      349.292
      9081.80      347.622
      9094.34      354.893
      9106.89      362.144
      9119.44      365.872
      9131.98      352.494
      9144.53      339.088
      9157.08      332.534
      9169.63      342.091
      9182.17      345.674
      9194.72      312.566
      9207.27      297.468
      9219.81      299.639
      9232.36      307.856
      9244.91      316.674
      9257.46      324.363
      9270.00      328.660
      9282.55      324.425
      9295.10      301.142
      9307.65      288.575
      9320.19      287.220
      9332.74      298.932
      9345.29      306.769
      9357.83      307.320
      9370.38      315.471
      9382.93      325.541
      9395.48      333.258
      9408.02      317.875
      9420.57      292.587
      9433.12      287.201
      9445.66      294.558
      9458.21      310.690
      9470.76      302.177
      9483.31      284.911
      9495.85      265.604
      9508.40      259.713
      9520.95      259.547
      9533.50      251.797
      9546.04      258.971
      9558.59      281.861
      9571.14      292.207
      9583.69      298.311
      9596.23      302.663
      9608.78      300.843
      9621.33      297.182
      9633.87      298.292
      9646.42      302.264
