# spectrum  Type     U-V    B-V    V-R    V-I    V-J    V-K
# ---------------------------------------------------------
# bpgs_65  K7V      2.56   1.28   0.91   1.69   2.61   3.49
#
# lambda (Angstroms)  flux (phot/lambda)
#----------------------------------------------------------
PHOTLAM
      1985.67    0.0622153
      1997.48     0.187099
      2009.29     0.338646
      2021.10     0.273869
      2032.91     0.271881
      2044.72     0.352786
      2056.53     0.446298
      2068.34     0.620784
      2080.15     0.752871
      2091.96     0.814967
      2103.77     0.530199
      2115.58     0.264941
      2127.39     0.699212
      2139.20     0.894529
      2151.01     0.274908
      2162.82     0.210532
      2174.63     0.285318
      2186.44     0.138171
      2198.25     0.245590
      2210.06     0.363140
      2221.87     0.122198
      2233.68    0.0295622
      2245.49     0.323783
      2257.30     0.790014
      2269.11     0.787794
      2280.92     0.800087
      2292.73     0.329344
      2304.55     0.199286
      2316.36     0.362509
      2328.17      1.10794
      2339.98      1.21351
      2351.79     0.534708
      2363.60     0.881883
      2375.41      1.30433
      2387.22      1.20720
      2399.03     0.883736
      2410.84     0.307308
      2422.65     0.915232
      2434.46     0.955469
      2446.27     0.854656
      2458.08      1.34041
      2469.89      1.47425
      2481.70      1.47471
      2493.51      1.14470
      2505.32      1.25772
      2517.13      1.25975
      2528.94      1.29209
      2540.75      1.97711
      2552.56      2.01347
      2564.37      2.12827
      2576.18      1.74559
      2587.99      1.33067
      2599.80      1.60514
      2611.61      1.70999
      2623.42      2.77045
      2635.23      3.55693
      2647.04      4.89503
      2658.85      4.70148
      2670.66      5.03054
      2682.47      4.91139
      2694.28      5.35716
      2706.09      4.59160
      2717.90      4.60996
      2729.71      4.14503
      2741.52      4.90354
      2753.33      5.70484
      2765.14      6.97656
      2776.95      7.67672
      2788.76      11.3738
      2800.58      29.6840
      2812.39      13.0858
      2824.20      7.02575
      2836.01      7.69675
      2847.82      9.52207
      2859.63      9.84212
      2871.44      10.5688
      2883.25      10.3660
      2895.06      10.3665
      2906.87      11.2275
      2918.68      14.4392
      2930.49      15.4358
      2942.30      14.2032
      2954.11      11.6517
      2965.92      11.3693
      2977.73      11.1059
      2989.54      14.9852
      3001.35      14.9369
      3013.16      14.2501
      3024.97      13.6065
      3036.78      19.8004
      3048.59      17.8495
      3060.40      14.0188
      3072.21      15.3730
      3084.02      19.6458
      3095.83      20.5473
      3107.64      27.5314
      3119.45      27.1744
      3131.26      20.9551
      3143.07      17.5110
      3154.88      28.1201
      3166.69      19.8863
      3178.50      23.3044
      3190.31      29.7088
      3202.12      34.7757
      3213.93      33.3955
      3225.74      35.1887
      3237.55      40.5423
      3249.36      41.0438
      3261.17      39.7666
      3272.99      40.6568
      3284.80      46.5348
      3296.61      46.2785
      3308.42      41.7170
      3320.23      51.1830
      3332.04      52.4684
      3343.85      57.0621
      3355.66      50.1560
      3367.47      49.5473
      3379.28      53.9982
      3391.09      63.7048
      3402.90      64.9509
      3414.71      63.5684
      3426.52      62.2127
      3438.33      58.2480
      3450.14      53.5530
      3461.95      59.6847
      3473.76      61.2472
      3485.57      61.4086
      3497.38      67.9741
      3509.19      71.6977
      3521.00      69.6154
      3532.81      82.6016
      3544.62      86.8869
      3556.43      72.2102
      3568.24      58.0415
      3580.05      53.9866
      3591.86      57.7369
      3603.67      58.5878
      3615.48      65.2349
      3627.29      70.0016
      3639.10      72.1747
      3650.91      85.7716
      3662.72      96.0263
      3674.53      82.2744
      3686.34      82.0139
      3698.15      82.6141
      3709.96      75.6715
      3721.77      68.1975
      3733.58      60.1268
      3745.39      61.4297
      3757.20      68.1706
      3769.01      87.9381
      3780.82      97.1132
      3792.64      91.5404
      3804.45      89.8111
      3816.26      77.3224
      3828.07      69.4737
      3839.88      82.6863
      3851.69      86.7629
      3863.50      84.1452
      3875.31      76.7730
      3887.12      81.3878
      3898.93      96.5933
      3910.74      98.6108
      3922.55      90.2443
      3934.36      92.5459
      3946.17      96.2347
      3957.98      101.944
      3969.79      125.057
      3981.60      151.657
      3993.41      174.805
      4005.22      188.498
      4017.03      200.888
      4028.84      197.522
      4040.65      193.933
      4052.46      215.239
      4064.27      217.059
      4076.08      230.704
      4087.89      251.779
      4099.70      239.013
      4111.51      242.121
      4123.32      254.575
      4135.13      252.563
      4146.94      254.493
      4158.75      261.397
      4170.56      257.104
      4182.37      255.709
      4194.18      256.030
      4205.99      250.583
      4217.80      193.362
      4229.61      166.756
      4241.42      215.831
      4253.23      231.852
      4265.04      248.158
      4276.85      239.350
      4288.66      244.053
      4300.48      254.136
      4312.29      303.177
      4324.10      336.394
      4335.91      356.600
      4347.72      364.738
      4359.53      374.015
      4371.34      362.222
      4383.15      351.052
      4394.96      373.147
      4406.77      384.227
      4418.58      400.110
      4430.39      406.523
      4442.20      432.581
      4454.01      428.084
      4465.82      494.959
      4477.63      543.238
      4489.44      560.613
      4501.25      577.954
      4513.06      585.239
      4524.87      530.001
      4536.68      529.310
      4548.49      607.139
      4560.30      661.831
      4572.11      668.949
      4583.92      670.429
      4595.73      681.476
      4607.54      713.727
      4619.35      718.319
      4631.16      717.127
      4642.97      692.214
      4654.78      690.648
      4666.59      691.092
      4678.40      695.962
      4690.21      705.240
      4702.02      690.276
      4713.83      702.387
      4725.64      699.145
      4737.45      684.194
      4749.26      664.443
      4761.07      598.609
      4772.89      559.308
      4784.70      578.248
      4796.51      633.540
      4808.32      676.841
      4820.13      665.461
      4831.94      650.287
      4843.75      676.515
      4855.56      690.577
      4867.37      672.193
      4879.18      656.426
      4890.99      676.019
      4902.80      705.382
      4914.61      707.479
      4926.42      731.771
      4938.23      744.693
      4950.04      722.948
      4961.85      687.538
      4973.66      685.204
      4985.47      653.785
      4997.28      638.509
      5009.09      616.572
      5020.90      630.704
      5032.71      632.808
      5044.52      627.962
      5056.33      620.630
      5068.14      596.995
      5079.95      583.183
      5091.76      582.524
      5103.57      570.567
      5115.38      561.320
      5127.19      561.602
      5139.00      591.106
      5150.81      581.925
      5162.62      552.736
      5174.43      499.804
      5186.24      543.428
      5198.05      576.231
      5209.86      620.085
      5221.67      740.851
      5233.48      794.283
      5245.29      823.753
      5257.11      759.319
      5268.92      725.621
      5280.73      820.720
      5292.54      858.646
      5304.35      892.106
      5316.16      891.764
      5327.97      843.569
      5339.78      854.145
      5351.59      912.092
      5363.40      955.190
      5375.21      965.282
      5387.02      971.134
      5398.83      926.662
      5410.64      950.711
      5422.45      1018.85
      5434.26      995.828
      5446.07      994.967
      5457.88      1010.55
      5469.69      1022.41
      5481.50      1039.97
      5493.31      1069.49
      5505.12      1039.55
      5516.93      1040.71
      5528.74      1100.38
      5540.55      1126.58
      5552.36      1152.63
      5564.17      1128.87
      5575.98      1101.86
      5587.79      1066.08
      5599.60      1033.74
      5611.41      1101.20
      5623.22      1122.58
      5635.03      1152.55
      5646.84      1195.43
      5658.65      1199.28
      5670.46      1194.56
      5682.27      1232.37
      5694.08      1229.48
      5705.89      1208.65
      5717.70      1239.81
      5729.51      1287.35
      5741.32      1340.52
      5753.13      1358.22
      5764.94      1368.91
      5776.75      1375.96
      5788.57      1381.78
      5800.38      1391.68
      5812.19      1425.38
      5824.00      1440.98
      5835.81      1417.67
      5847.62      1388.70
      5859.43      1342.71
      5871.24      1196.74
      5883.05      1065.40
      5894.86      1017.81
      5906.67      1078.27
      5918.48      1216.07
      5930.29      1302.35
      5942.10      1363.31
      5953.91      1389.55
      5965.72      1412.02
      5977.53      1432.45
      5989.34      1440.75
      6001.15      1446.26
      6012.96      1459.26
      6024.77      1484.58
      6036.58      1525.76
      6048.39      1551.19
      6060.20      1563.83
      6072.01      1547.75
      6083.82      1525.56
      6095.63      1500.15
      6107.44      1470.85
      6119.25      1446.71
      6131.06      1480.79
      6142.87      1495.45
      6154.68      1431.26
      6166.49      1395.22
      6178.30      1389.02
      6190.11      1416.11
      6201.92      1435.90
      6213.73      1401.23
      6225.54      1369.91
      6237.35      1349.06
      6249.16      1357.42
      6260.97      1379.27
      6272.79      1412.08
      6284.60      1445.87
      6296.41      1479.03
      6308.22      1508.25
      6320.03      1534.68
      6331.84      1555.84
      6343.65      1569.77
      6355.46      1571.19
      6367.27      1554.15
      6379.08      1528.58
      6390.89      1531.33
      6402.70      1550.94
      6414.51      1597.38
      6426.32      1626.28
      6438.13      1638.34
      6449.94      1649.91
      6461.75      1659.21
      6473.56      1660.87
      6485.37      1669.13
      6497.18      1687.39
      6508.99      1729.18
      6520.80      1775.32
      6532.61      1798.46
      6544.42      1804.03
      6556.23      1786.81
      6568.04      1779.64
      6579.85      1781.72
      6591.66      1807.19
      6603.47      1826.22
      6615.28      1823.27
      6627.09      1821.58
      6638.90      1819.45
      6650.71      1801.14
      6662.52      1778.21
      6674.33      1753.20
      6686.14      1733.57
      6697.95      1719.27
      6709.76      1707.88
      6721.57      1697.87
      6733.38      1689.26
      6745.19      1678.25
      6757.00      1663.93
      6768.82      1647.92
      6780.63      1631.23
      6792.44      1614.64
      6804.25      1608.49
      6816.06      1619.69
      6827.87      1636.81
      6839.68      1650.04
      6851.49      1618.29
      6863.30      1579.19
      6875.11      1543.51
      6886.92      1564.61
      6898.73      1625.85
      6910.54      1674.53
      6922.35      1719.27
      6934.16      1762.13
      6945.97      1803.30
      6957.78      1840.11
      6969.59      1836.63
      6981.40      1827.77
      6993.21      1849.58
      7005.02      1878.91
      7016.83      1914.12
      7028.64      1956.78
      7040.45      1994.68
      7052.26      1991.34
      7064.07      1974.52
      7075.88      1945.24
      7087.69      1925.26
      7099.50      1908.84
      7111.31      1879.35
      7123.12      1849.39
      7134.93      1824.99
      7146.74      1843.18
      7158.55      1892.96
      7170.36      1930.34
      7182.17      1944.86
      7193.98      1901.27
      7205.79      1892.08
      7217.60      1923.29
      7229.41      1959.11
      7241.22      1990.59
      7253.03      1998.73
      7264.84      2013.94
      7276.65      2042.79
      7288.46      2076.87
      7300.28      2106.21
      7312.09      2098.71
      7323.90      2091.68
      7335.71      2096.20
      7347.52      2105.15
      7359.33      2117.59
      7371.14      2135.96
      7382.95      2151.22
      7394.76      2155.47
      7406.57      2161.71
      7418.38      2170.09
      7430.19      2179.36
      7442.00      2189.39
      7453.81      2200.49
      7465.62      2204.27
      7477.43      2200.36
      7489.24      2202.20
      7501.05      2207.74
      7512.86      2219.07
      7524.67      2233.78
      7536.48      2252.18
      7548.29      2265.27
      7560.10      2290.25
      7571.91      2394.78
      7583.72      2418.56
      7595.53      2262.43
      7607.34      2153.26
      7619.15      2089.23
      7630.96      2111.35
      7642.77      2141.15
      7654.58      2140.61
      7666.39      2096.55
      7678.20      2026.34
      7690.01      2067.02
      7701.82      2127.64
      7713.63      2143.77
      7725.44      2161.21
      7737.25      2184.43
      7749.06      2203.78
      7760.88      2221.43
      7772.69      2239.19
      7784.49      2247.35
      7796.31      2241.16
      7808.12      2235.03
      7819.93      2233.99
      7831.74      2261.16
      7843.55      2287.22
      7855.36      2300.30
      7867.17      2307.21
      7878.98      2308.36
      7890.79      2294.54
      7902.60      2279.01
      7914.41      2268.59
      7926.22      2260.22
      7938.03      2254.02
      7949.84      2254.39
      7961.65      2263.17
      7973.46      2292.78
      7985.27      2314.78
      7997.08      2324.75
      8008.89      2334.77
      8020.70      2342.34
      8032.51      2339.42
      8044.32      2344.55
      8056.13      2364.17
      8067.94      2362.09
      8079.75      2349.80
      8091.56      2350.31
      8103.37      2365.18
      8115.18      2405.74
      8126.99      2435.39
      8138.80      2452.14
      8150.61      2431.60
      8162.42      2392.68
      8174.23      2329.19
      8186.04      2250.96
      8197.85      2171.19
      8209.66      2233.12
      8221.47      2316.59
      8233.28      2304.52
      8245.10      2319.58
      8256.90      2378.75
      8268.71      2384.54
      8280.52      2365.58
      8292.34      2342.24
      8304.15      2312.05
      8315.96      2271.40
      8327.76      2253.61
      8339.58      2254.80
      8351.39      2296.38
      8363.20      2321.82
      8375.01      2293.57
      8386.82      2278.86
      8398.63      2277.21
      8410.44      2286.76
      8422.25      2302.73
      8434.06      2327.98
      8445.87      2328.39
      8457.68      2304.52
      8469.49      2299.11
      8481.30      2299.44
      8493.11      2296.95
      8504.92      2288.67
      8516.73      2271.26
      8528.54      2229.13
      8540.35      2182.45
      8552.16      2173.37
      8563.97      2214.52
      8575.78      2333.69
      8587.59      2388.42
      8599.40      2397.04
      8611.21      2365.14
      8623.02      2342.09
      8634.83      2357.64
      8646.64      2333.14
      8658.45      2272.14
      8670.26      2182.46
      8682.07      2129.31
      8693.88      2212.14
      8705.69      2284.90
      8717.50      2334.06
      8729.31      2360.70
      8741.12      2368.71
      8752.93      2336.86
      8764.74      2307.65
      8776.55      2290.21
      8788.37      2310.69
      8800.18      2337.60
      8811.99      2302.96
      8823.80      2292.20
      8835.61      2344.89
      8847.42      2370.91
      8859.23      2374.51
      8871.04      2351.96
      8882.85      2328.34
      8894.66      2317.38
      8906.47      2312.77
      8918.28      2312.52
      8930.09      2311.11
      8941.90      2318.14
      8953.71      2355.09
      8965.52      2375.27
      8977.33      2371.74
      8989.14      2326.66
      9000.95      2282.75
      9012.76      2310.72
      9024.57      2365.78
      9036.38      2445.88
      9048.19      2459.08
      9060.00      2429.30
      9071.81      2351.68
      9083.62      2313.71
      9095.43      2369.34
      9107.24      2378.17
      9119.05      2348.30
      9130.86      2280.07
      9142.67      2231.27
      9154.48      2254.03
      9166.29      2276.41
      9178.10      2296.08
      9189.91      2330.33
      9201.72      2366.74
      9213.53      2393.01
      9225.34      2384.93
      9237.15      2337.18
      9248.96      2287.63
      9260.78      2267.77
      9272.58      2381.16
      9284.40      2449.30
      9296.21      2418.27
      9308.02      2394.26
      9319.83      2390.05
      9331.64      2473.98
      9343.45      2476.44
      9355.26      2280.87
      9367.07      2227.31
      9378.88      2294.45
      9390.69      2482.51
      9402.50      2600.36
      9414.31      2449.20
      9426.12      2294.37
      9437.93      2167.23
      9449.74      2213.35
      9461.55      2300.10
      9473.36      2328.39
      9485.17      2321.16
      9496.98      2279.09
      9508.79      2279.25
      9520.60      2309.13
      9532.41      2392.77
      9544.22      2436.18
      9556.03      2400.95
      9567.84      2352.17
      9579.65      2303.25
      9591.46      2295.09
      9603.27      2307.60
      9615.08      2347.38
      9626.89      2322.62
      9638.70      2254.55
      9650.51      2237.03
      9662.32      2238.64
      9674.13      2256.31
      9685.94      2265.88
      9697.75      2265.48
      9709.56      2258.95
      9721.37      2257.43
      9733.18      2281.44
      9744.99      2279.80
      9756.80      2242.83
      9768.62      2246.66
      9780.43      2265.14
      9792.24      2263.17
      9804.04      2271.40
      9815.86      2303.32
      9827.67      2303.30
      9839.48      2284.56
      9851.29      2271.04
      9863.10      2264.11
      9874.91      2270.21
      9886.72      2267.82
      9898.53      2259.14
      9910.34      2258.03
      9922.15      2260.45
      9933.96      2267.15
      9945.77      2273.62
      9957.58      2278.48
      9969.39      2274.50
      9981.20      2268.72
      9993.01      2269.48
      10004.8      2282.86
      10016.6      2311.16
      10028.4      2302.96
      10040.3      2284.03
      10052.1      2302.60
      10063.9      2299.02
      10075.7      2246.04
      10087.5      2233.37
      10099.3      2248.40
      10111.1      2273.71
      10122.9      2291.49
      10134.7      2284.97
      10146.5      2263.11
      10158.4      2234.78
      10170.2      2259.23
      10182.0      2278.95
      10193.8      2236.80
      10205.6      2200.97
      10217.4      2178.78
      10229.2      2178.90
      10241.0      2192.06
      10252.8      2224.11
      10264.6      2255.85
      10276.5      2282.83
      10288.3      2276.38
      10300.1      2253.53
      10311.9      2232.27
      10323.7      2213.79
      10335.5      2200.41
      10347.3      2199.85
      10359.1      2210.75
      10370.9      2245.35
      10382.7      2268.08
      10394.6      2247.83
      10406.4      2249.36
      10418.2      2271.30
      10430.0      2278.99
      10441.8      2276.67
      10453.6      2256.68
      10465.4      2237.31
      10477.2      2222.80
      10489.0      2241.08
      10500.8      2259.45
      10512.7      2219.44
      10524.5      2207.92
      10536.3      2250.91
      10548.1      2276.92
      10559.9      2286.32
      10571.7      2255.96
      10583.5      2233.95
