# spectrum  Type     U-V    B-V    V-R    V-I    V-J    V-K
# ---------------------------------------------------------
#  bpgs_2  O8F     -1.38  -0.32  -0.13  -0.30  -0.77  -0.93
#
# lambda (Angstroms)  flux (phot/lambda)
#----------------------------------------------------------
PHOTLAM
      512.023      22181.3
      524.570      22541.7
      537.117      22342.6
      549.664      22981.7
      562.212      23891.4
      574.759      24227.4
      587.306      24416.1
      599.853      24692.6
      612.401      24915.6
      624.948      24800.6
      637.495      24660.0
      650.042      24908.1
      662.590      25289.6
      675.137      25469.5
      687.684      25272.7
      700.231      25070.9
      712.779      25267.2
      725.326      25716.5
      737.873      25943.1
      750.420      25400.7
      762.968      24792.9
      775.515      24536.6
      788.062      24723.0
      800.609      24911.2
      813.157      24938.9
      825.704      24576.6
      838.251      24197.0
      850.798      23884.8
      863.346      23889.4
      875.893      23934.4
      888.440      24042.3
      900.987      24802.8
      913.535      25736.7
      926.082      29752.7
      938.629      36798.3
      951.177      41500.2
      963.724      44810.2
      976.271      45238.0
      988.818      45196.3
      1001.37      44418.9
      1013.91      43555.8
      1026.46      42617.6
      1039.01      41771.2
      1051.55      41250.1
      1064.10      40749.0
      1076.65      40226.7
      1089.20      39631.6
      1101.74      38813.3
      1114.29      38474.2
      1126.84      38502.3
      1139.39      37697.4
      1151.93      37183.6
      1164.48      36463.6
      1177.03      35291.4
      1189.57      34026.9
      1202.12      32907.4
      1214.67      32363.3
      1227.22      31993.6
      1239.76      31670.3
      1252.31      31020.9
      1264.86      30376.2
      1277.41      29816.8
      1289.95      29050.5
      1302.50      28210.8
      1315.05      27372.2
      1327.59      26632.4
      1340.14      25962.7
      1352.69      25313.1
      1365.24      24782.6
      1377.78      24409.4
      1390.33      24039.5
      1402.88      23667.1
      1415.42      23288.0
      1427.97      22975.0
      1440.52      22731.3
      1453.07      22634.8
      1465.61      22562.5
      1478.16      22479.9
      1490.71      22229.9
      1503.26      21835.6
      1515.80      21208.6
      1528.35      20269.7
      1540.90      19150.2
      1553.44      17961.3
      1565.99      17804.3
      1578.54      18700.9
      1591.09      18772.5
      1603.63      18594.8
      1616.18      18340.7
      1628.73      18091.7
      1641.28      17848.7
      1653.82      17616.6
      1666.37      17369.8
      1678.92      17106.8
      1691.46      16835.1
      1704.01      16587.4
      1716.56      16393.0
      1729.11      16266.1
      1741.65      16137.0
      1754.20      15892.8
      1766.75      15727.1
      1779.30      15621.6
      1791.84      15388.7
      1804.39      15117.5
      1816.94      14832.6
      1829.48      14701.2
      1842.03      14585.5
      1854.58      14317.9
      1867.13      14091.7
      1879.67      13907.4
      1892.22      13725.4
      1904.77      13540.1
      1917.32      13354.1
      1929.86      13255.3
      1942.41      13164.4
      1954.96      13002.3
      1967.50      12814.2
      1980.05      12615.2
      1992.60      12438.9
      2005.15      12272.2
      2017.69      12112.5
      2030.24      11949.5
      2042.79      11822.4
      2055.33      11795.4
      2067.88      11676.2
      2080.43      11496.7
      2092.98      11329.4
      2105.52      11178.4
      2118.07      11046.6
      2130.62      10918.5
      2143.17      10788.7
      2155.71      10653.3
      2168.26      10512.5
      2180.81      10370.0
      2193.35      10234.3
      2205.90      10106.3
      2218.45      9986.54
      2231.00      9872.43
      2243.54      9745.57
      2256.09      9588.58
      2268.64      9446.05
      2281.19      9311.89
      2293.73      9181.01
      2306.28      9061.91
      2318.83      8956.05
      2331.37      8869.64
      2343.92      8777.28
      2356.47      8661.59
      2369.02      8506.74
      2381.56      8348.82
      2394.11      8246.55
      2406.66      8161.88
      2419.20      8084.91
      2431.75      7985.79
      2444.30      7887.48
      2456.85      7797.48
      2469.39      7645.24
      2481.94      7481.68
      2494.49      7369.54
      2507.04      7288.86
      2519.58      7233.89
      2532.13      7207.61
      2544.68      7164.01
      2557.22      7083.66
      2569.77      6994.16
      2582.32      6903.25
      2594.87      6819.39
      2607.41      6740.27
      2619.96      6663.76
      2632.51      6588.19
      2645.06      6513.01
      2657.60      6438.30
      2670.15      6355.20
      2682.70      6274.13
      2695.24      6205.60
      2707.79      6134.65
      2720.34      6059.21
      2732.89      5971.65
      2745.43      5903.25
      2757.98      5860.12
      2770.53      5796.09
      2783.07      5727.13
      2795.62      5662.39
      2808.17      5599.77
      2820.72      5537.79
      2833.26      5474.30
      2845.81      5413.55
      2858.36      5355.98
      2870.91      5299.87
      2883.45      5243.54
      2896.00      5188.00
      2908.55      5131.34
      2921.09      5073.61
      2933.64      5014.62
      2946.19      4958.36
      2958.74      4904.74
      2971.28      4848.32
      2983.83      4791.03
      2996.38      4734.14
      3008.93      4680.74
      3021.47      4630.17
      3034.02      4585.51
      3046.57      4544.04
      3059.11      4504.26
      3071.66      4458.11
      3084.21      4410.32
      3096.76      4362.22
      3109.30      4314.71
      3121.85      4267.72
      3134.40      4222.18
      3146.95      4181.77
      3159.49      4144.86
      3172.04      4105.33
      3184.59      4059.63
      3197.13      4005.23
      3209.68      3958.03
      3222.23      3918.73
      3234.78      3896.65
      3247.32      3972.34
      3259.87      4055.94
      3272.42      3834.47
      3284.97      3731.17
      3297.51      3651.78
      3310.06      3648.74
      3322.61      3654.74
      3335.15      3650.59
      3347.70      3554.16
      3360.25      3519.10
      3372.80      3452.67
      3385.34      3449.03
      3397.89      3381.26
      3410.44      3355.86
      3422.98      3347.10
      3435.53      3281.38
      3448.08      3245.08
      3460.63      3212.47
      3473.17      3181.53
      3485.72      3154.51
      3498.27      3154.91
      3510.82      3153.15
      3523.36      3114.04
      3535.91      3088.03
      3548.46      3012.86
      3561.00      2994.55
      3573.55      3011.19
      3586.10      2995.67
      3598.65      3011.17
      3611.19      2991.56
      3623.74      2946.34
      3636.29      2920.41
      3648.84      2939.41
      3661.38      2866.72
      3673.93      2809.58
      3686.48      2760.88
      3699.02      2696.74
      3711.57      2642.97
      3724.12      2640.60
      3736.67      2649.69
      3749.21      2637.12
      3761.76      2590.78
      3774.31      2639.57
      3786.86      2628.49
      3799.40      2607.61
      3811.95      2647.84
      3824.50      2594.86
      3837.04      2536.69
      3849.59      2537.76
      3862.14      2538.17
      3874.69      2438.80
      3887.23      2366.71
      3899.78      2403.51
      3912.33      2431.98
      3924.87      2399.49
      3937.42      2382.50
      3949.97      2398.09
      3962.52      2315.81
      3975.06      2318.65
      3987.61      2410.64
      4000.16      2434.92
      4012.71      2401.39
      4025.25      2340.36
      4037.80      2357.22
      4050.35      2389.66
      4062.89      2379.55
      4075.44      2356.33
      4087.99      2267.46
      4100.54      2193.03
      4113.08      2297.61
      4125.63      2398.28
      4138.18      2345.39
      4150.73      2276.12
      4163.27      2250.01
      4175.82      2226.86
      4188.37      2176.38
      4200.91      2125.79
      4213.46      2173.96
      4226.01      2148.54
      4238.56      2122.44
      4251.10      2120.69
      4263.65      2094.03
      4276.20      2102.21
      4288.74      2104.08
      4301.29      2084.61
      4313.84      2056.79
      4326.39      2010.91
      4338.93      1916.75
      4351.48      1945.34
      4364.03      1988.94
      4376.58      1962.83
      4389.12      1908.18
      4401.67      1903.43
      4414.22      1898.19
      4426.76      1857.41
      4439.31      1846.51
      4451.86      1849.37
      4464.41      1795.88
      4476.95      1791.30
      4489.50      1811.17
      4502.05      1793.05
      4514.60      1720.11
      4527.14      1707.79
      4539.69      1697.36
      4552.24      1705.45
      4564.78      1704.62
      4577.33      1686.79
      4589.88      1678.63
      4602.43      1684.25
      4614.97      1709.74
      4627.52      1741.04
      4640.07      1766.21
      4652.62      1708.19
      4665.16      1661.17
      4677.71      1657.46
      4690.26      1648.55
      4702.81      1614.86
      4715.35      1586.63
      4727.90      1581.82
      4740.45      1570.50
      4752.99      1560.09
      4765.54      1557.65
      4778.09      1541.77
      4790.64      1499.22
      4803.18      1488.40
      4815.73      1476.91
      4828.28      1452.15
      4840.82      1417.42
      4853.37      1374.26
      4865.92      1353.11
      4878.47      1379.10
      4891.01      1387.36
      4903.56      1372.86
      4916.11      1353.74
      4928.66      1359.81
      4941.20      1343.17
      4953.75      1326.55
      4966.30      1312.36
      4978.84      1305.11
      4991.39      1297.88
      5003.94      1290.58
      5016.49      1275.55
      5029.03      1266.23
      5041.58      1253.38
      5054.13      1244.84
      5066.67      1239.48
      5079.22      1234.08
      5091.77      1215.90
      5104.32      1199.14
      5116.86      1194.96
      5129.41      1195.95
      5141.96      1190.96
      5154.51      1186.50
      5167.05      1172.21
      5179.60      1168.30
      5192.15      1154.61
      5204.69      1147.34
      5217.24      1127.20
      5229.79      1119.40
      5242.34      1113.70
      5254.88      1120.11
      5267.43      1109.22
      5279.98      1099.48
      5292.53      1090.04
      5305.07      1086.04
      5317.62      1081.53
      5330.17      1076.21
      5342.71      1066.55
      5355.26      1054.33
      5367.81      1054.36
      5380.36      1049.58
      5392.90      1042.58
      5405.45      1022.17
      5418.00      1010.45
      5430.55      1024.74
      5443.09      1017.81
      5455.64      999.755
      5468.19      989.829
      5480.73      980.440
      5493.28      980.958
      5505.83      980.816
      5518.38      977.836
      5530.92      977.249
      5543.47      970.901
      5556.02      966.756
      5568.57      969.765
      5581.11      966.218
      5593.66      946.469
      5606.21      941.251
      5618.75      942.768
      5631.30      946.270
      5643.85      940.647
      5656.40      933.708
      5668.94      926.836
      5681.49      920.079
      5694.04      913.398
      5706.58      906.742
      5719.13      900.089
      5731.68      893.644
      5744.23      884.704
      5756.77      871.347
      5769.32      855.430
      5781.87      842.648
      5794.41      843.872
      5806.96      845.365
      5819.51      844.925
      5832.06      836.523
      5844.60      824.331
      5857.15      809.171
      5869.70      803.444
      5882.25      803.075
      5894.79      807.773
      5907.34      810.977
      5919.89      811.560
      5932.44      804.809
      5944.98      797.049
      5957.53      789.701
      5970.08      782.115
      5982.62      774.481
      5995.17      767.075
      6007.72      761.744
      6020.27      758.306
      6032.81      757.454
      6045.36      756.335
      6057.91      754.307
      6070.45      752.073
      6083.00      749.735
      6095.55      747.363
      6108.10      746.706
      6120.64      745.517
      6133.19      736.575
      6145.74      726.654
      6158.29      716.827
      6170.83      708.296
      6183.38      702.797
      6195.93      703.457
      6208.47      707.766
      6221.02      711.849
      6233.57      707.135
      6246.12      698.462
      6258.66      686.954
      6271.21      677.684
      6283.76      671.696
      6296.30      671.111
      6308.85      670.412
      6321.40      669.581
      6333.95      669.164
      6346.49      668.665
      6359.04      667.814
      6371.59      664.919
      6384.14      660.437
      6396.68      654.175
      6409.23      648.809
      6421.78      643.965
      6434.32      639.277
      6446.87      634.715
      6459.42      630.027
      6471.97      623.738
      6484.51      619.533
      6497.06      619.228
      6509.61      617.754
      6522.16      620.767
      6534.70      639.209
      6547.25      655.789
      6559.80      666.248
      6572.34      653.657
      6584.89      638.002
      6597.44      624.181
      6609.99      613.336
      6622.53      604.155
      6635.08      596.667
      6647.63      583.097
      6660.18      567.689
      6672.72      565.501
      6685.27      569.785
      6697.82      578.668
      6710.36      576.223
      6722.91      569.793
      6735.46      562.973
      6748.01      559.018
      6760.55      557.298
      6773.10      557.574
      6785.65      554.251
      6798.20      546.997
      6810.74      545.755
      6823.29      546.935
      6835.84      548.925
      6848.38      538.659
      6860.93      522.714
      6873.48      512.041
      6886.03      507.693
      6898.57      510.077
      6911.12      518.574
      6923.67      524.857
      6936.21      523.180
      6948.76      521.078
      6961.31      519.053
      6973.86      517.564
      6986.40      511.251
      6998.95      501.216
      7011.50      499.113
      7024.05      496.253
      7036.59      488.676
      7049.14      483.070
      7061.69      479.170
      7074.23      477.673
      7086.78      478.416
      7099.33      480.264
      7111.88      477.385
      7124.42      473.685
      7136.97      470.216
      7149.52      463.970
      7162.07      458.273
      7174.61      458.175
      7187.16      459.836
      7199.71      461.422
      7212.25      456.351
      7224.80      452.177
      7237.35      450.995
      7249.90      446.787
      7262.44      442.818
      7274.99      442.694
      7287.54      446.104
      7300.09      450.317
      7312.63      446.472
      7325.18      441.255
      7337.73      436.139
      7350.27      431.933
      7362.82      427.672
      7375.37      422.590
      7387.92      419.135
      7400.46      417.453
      7413.01      418.844
      7425.56      417.109
      7438.11      411.386
      7450.65      409.240
      7463.20      408.597
      7475.75      408.790
      7488.29      411.159
      7500.84      413.296
      7513.39      409.229
      7525.94      407.012
      7538.48      408.241
      7551.03      414.048
      7563.58      411.755
      7576.12      389.791
      7588.67      359.341
      7601.22      337.845
      7613.77      367.019
      7626.31      391.160
      7638.86      402.383
      7651.41      398.903
      7663.96      387.524
      7676.50      368.793
      7689.05      364.706
      7701.60      368.633
      7714.15      376.000
      7726.69      378.987
      7739.24      377.677
      7751.79      375.243
      7764.33      373.111
      7776.88      371.903
      7789.43      369.959
      7801.98      368.530
      7814.52      369.757
      7827.07      367.831
      7839.62      363.530
      7852.16      361.453
      7864.71      358.298
      7877.26      352.794
      7889.81      347.489
      7902.35      345.248
      7914.90      351.436
      7927.45      351.698
      7939.99      348.121
      7952.54      349.706
      7965.09      345.715
      7977.64      333.882
      7990.18      336.459
      8002.73      341.736
      8015.28      340.878
      8027.83      339.797
      8040.37      338.640
      8052.92      336.314
      8065.47      335.632
      8078.02      336.736
      8090.56      332.540
      8103.11      327.391
      8115.66      324.246
      8128.20      327.996
      8140.75      333.293
      8153.30      327.696
      8165.85      321.725
      8178.39      318.188
      8190.94      324.984
      8203.49      329.814
      8216.03      324.245
      8228.58      318.638
      8241.13      314.489
      8253.68      315.063
      8266.22      317.289
      8278.77      319.551
      8291.32      313.419
      8303.86      306.193
      8316.41      301.472
      8328.96      306.888
      8341.51      313.042
      8354.05      304.363
      8366.60      302.035
      8379.15      305.804
      8391.70      301.150
      8404.24      300.122
      8416.79      308.246
      8429.34      307.202
      8441.88      303.476
      8454.43      304.473
      8466.98      294.313
      8479.53      277.672
      8492.07      280.807
      8504.62      287.886
      8517.17      293.977
      8529.72      289.787
      8542.26      283.359
      8554.81      282.467
      8567.36      283.782
      8579.90      284.811
      8592.45      276.791
      8605.00      270.487
      8617.55      269.806
      8630.09      279.886
      8642.64      289.221
      8655.19      286.335
      8667.73      281.947
      8680.28      277.196
      8692.83      272.945
      8705.38      270.072
      8717.92      269.133
      8730.47      270.679
      8743.02      270.955
      8755.57      266.581
      8768.11      268.016
      8780.66      272.004
      8793.21      270.854
      8805.76      271.766
      8818.30      274.946
      8830.85      268.222
      8843.40      260.904
      8855.94      258.492
      8868.49      254.765
      8881.04      252.527
      8893.59      259.522
      8906.13      260.545
      8918.68      255.305
      8931.23      260.385
      8943.78      263.741
      8956.32      258.250
      8968.87      251.410
      8981.42      244.685
      8993.96      240.355
      9006.51      240.421
      9019.06      244.716
      9031.61      251.843
      9044.15      254.471
      9056.70      248.398
      9069.25      246.422
      9081.80      246.044
      9094.34      244.357
      9106.89      244.292
      9119.44      244.410
      9131.98      236.487
      9144.53      228.877
      9157.08      224.848
      9169.63      226.280
      9182.17      230.539
      9194.72      236.434
      9207.27      234.170
      9219.81      226.065
      9232.36      220.605
      9244.91      218.372
      9257.46      220.464
      9270.00      228.572
      9282.55      234.607
      9295.10      229.013
      9307.65      215.035
      9320.19      202.826
      9332.74      226.046
      9345.29      236.823
      9357.83      224.486
      9370.38      223.497
      9382.93      228.660
      9395.48      238.446
      9408.02      230.054
      9420.57      209.260
      9433.12      184.619
      9445.66      184.978
      9458.21      213.727
      9470.76      223.202
      9483.31      219.856
      9495.85      202.331
      9508.40      200.447
      9520.95      206.226
      9533.50      205.178
      9546.04      194.463
      9558.59      178.761
      9571.14      198.363
      9583.69      214.704
      9596.23      205.656
      9608.78      207.167
      9621.33      212.474
      9633.87      209.057
      9646.42      210.479
