# spectrum  Type     U-V    B-V    V-R    V-I    V-J    V-K
# ---------------------------------------------------------
#  bpgs_1  O5      -1.42  -0.34  -0.14  -0.29  -0.76  -0.93
#
# lambda (Angstroms)  flux (phot/lambda)
#----------------------------------------------------------
PHOTLAM
      512.023      23264.6
      524.570      23642.3
      537.117      23433.5
      549.664      24103.7
      562.212      25057.6
      574.759      25409.9
      587.306      25607.8
      599.853      25898.0
      612.401      26132.2
      624.948      26011.8
      637.495      25864.6
      650.042      26125.0
      662.590      26525.4
      675.137      26714.0
      687.684      26506.8
      700.231      26294.3
      712.779      26500.1
      725.326      26971.7
      737.873      27209.7
      750.420      26641.1
      762.968      26004.2
      775.515      25735.4
      788.062      25930.6
      800.609      26127.7
      813.157      26156.6
      825.704      25776.9
      838.251      25379.1
      850.798      25052.0
      863.346      25057.0
      875.893      25104.3
      888.440      25217.4
      900.987      26014.8
      913.535      26993.8
      926.082      31205.6
      938.629      38595.3
      951.177      43527.3
      963.724      46999.3
      976.271      47447.8
      988.818      47403.8
      1001.37      46588.0
      1013.91      45682.4
      1026.46      44698.5
      1039.01      43810.9
      1051.55      43264.4
      1064.10      42739.0
      1076.65      42191.4
      1089.20      41567.5
      1101.74      40709.7
      1114.29      40353.8
      1126.84      40382.2
      1139.39      39537.8
      1151.93      38998.4
      1164.48      38243.2
      1177.03      37014.3
      1189.57      35688.1
      1202.12      34513.8
      1214.67      33943.5
      1227.22      33555.8
      1239.76      33216.6
      1252.31      32535.9
      1264.86      31860.1
      1277.41      31273.6
      1289.95      30469.4
      1302.50      29588.3
      1315.05      28709.3
      1327.59      27933.1
      1340.14      27229.7
      1352.69      26547.9
      1365.24      25991.5
      1377.78      25600.8
      1390.33      25213.1
      1402.88      24822.5
      1415.42      24425.0
      1427.97      24096.7
      1440.52      23841.1
      1453.07      23740.1
      1465.61      23664.3
      1478.16      23577.6
      1490.71      23315.4
      1503.26      22901.8
      1515.80      22244.4
      1528.35      21259.5
      1540.90      20085.1
      1553.44      18838.3
      1565.99      18673.6
      1578.54      19613.9
      1591.09      19688.9
      1603.63      19502.5
      1616.18      19236.1
      1628.73      18975.0
      1641.28      18720.2
      1653.82      18476.7
      1666.37      18217.9
      1678.92      17942.1
      1691.46      17657.1
      1704.01      17397.2
      1716.56      17193.2
      1729.11      17060.1
      1741.65      16924.7
      1754.20      16668.6
      1766.75      16494.9
      1779.30      16384.5
      1791.84      16140.0
      1804.39      15855.5
      1816.94      15556.7
      1829.48      15419.1
      1842.03      15297.9
      1854.58      15017.1
      1867.13      14779.8
      1879.67      14586.4
      1892.22      14395.4
      1904.77      14201.0
      1917.32      14006.1
      1929.86      13902.5
      1942.41      13807.2
      1954.96      13637.1
      1967.50      13439.7
      1980.05      13231.0
      1992.60      13046.0
      2005.15      12871.4
      2017.69      12703.9
      2030.24      12533.0
      2042.79      12399.6
      2055.33      12371.3
      2067.88      12246.4
      2080.43      12058.1
      2092.98      11882.5
      2105.52      11724.1
      2118.07      11585.9
      2130.62      11451.7
      2143.17      11315.4
      2155.71      11173.5
      2168.26      11025.8
      2180.81      10876.4
      2193.35      10733.9
      2205.90      10599.8
      2218.45      10474.3
      2231.00      10354.4
      2243.54      10221.3
      2256.09      10056.7
      2268.64      9907.30
      2281.19      9766.45
      2293.73      9629.24
      2306.28      9504.38
      2318.83      9393.22
      2331.37      9302.75
      2343.92      9205.76
      2356.47      9084.46
      2369.02      8922.18
      2381.56      8756.44
      2394.11      8649.15
      2406.66      8560.59
      2419.20      8479.65
      2431.75      8375.63
      2444.30      8272.58
      2456.85      8178.32
      2469.39      8018.44
      2481.94      7846.98
      2494.49      7729.45
      2507.04      7644.71
      2519.58      7587.17
      2532.13      7559.55
      2544.68      7513.87
      2557.22      7429.55
      2569.77      7335.73
      2582.32      7240.29
      2594.87      7152.40
      2607.41      7069.36
      2619.96      6989.15
      2632.51      6909.87
      2645.06      6831.09
      2657.60      6752.69
      2670.15      6665.45
      2682.70      6580.40
      2695.24      6508.60
      2707.79      6434.22
      2720.34      6355.02
      2732.89      6263.23
      2745.43      6191.42
      2757.98      6146.32
      2770.53      6079.11
      2783.07      6006.77
      2795.62      5939.00
      2808.17      5873.39
      2820.72      5808.18
      2833.26      5741.52
      2845.81      5677.96
      2858.36      5617.67
      2870.91      5558.61
      2883.45      5499.56
      2896.00      5441.25
      2908.55      5381.77
      2921.09      5321.33
      2933.64      5259.45
      2946.19      5200.46
      2958.74      5144.24
      2971.28      5085.04
      2983.83      5024.99
      2996.38      4965.32
      3008.93      4909.27
      3021.47      4856.24
      3034.02      4809.41
      3046.57      4765.90
      3059.11      4724.19
      3071.66      4675.79
      3084.21      4625.66
      3096.76      4575.21
      3109.30      4525.41
      3121.85      4476.11
      3134.40      4428.34
      3146.95      4385.96
      3159.49      4347.25
      3172.04      4305.78
      3184.59      4257.83
      3197.13      4200.80
      3209.68      4151.27
      3222.23      4110.06
      3234.78      4086.91
      3247.32      4166.32
      3259.87      4270.66
      3272.42      4119.23
      3284.97      4014.16
      3297.51      3889.79
      3310.06      3787.05
      3322.61      3838.50
      3335.15      3773.75
      3347.70      3759.83
      3360.25      3694.65
      3372.80      3636.28
      3385.34      3565.67
      3397.89      3530.35
      3410.44      3487.72
      3422.98      3514.73
      3435.53      3505.43
      3448.08      3508.78
      3460.63      3472.59
      3473.17      3358.44
      3485.72      3311.21
      3498.27      3359.52
      3510.82      3297.89
      3523.36      3277.16
      3535.91      3223.06
      3548.46      3200.47
      3561.00      3147.39
      3573.55      3091.88
      3586.10      3032.06
      3598.65      3052.46
      3611.19      3017.26
      3623.74      2991.93
      3636.29      2955.19
      3648.84      2957.91
      3661.38      2952.03
      3673.93      2874.74
      3686.48      2809.25
      3699.02      2781.18
      3711.57      2770.01
      3724.12      2751.51
      3736.67      2699.28
      3749.21      2696.52
      3761.76      2681.78
      3774.31      2712.14
      3786.86      2709.52
      3799.40      2687.47
      3811.95      2793.62
      3824.50      2744.28
      3837.04      2614.20
      3849.59      2699.74
      3862.14      2709.76
      3874.69      2630.52
      3887.23      2485.83
      3899.78      2523.45
      3912.33      2589.75
      3924.87      2580.81
      3937.42      2586.75
      3949.97      2593.21
      3962.52      2461.53
      3975.06      2438.39
      3987.61      2550.38
      4000.16      2554.87
      4012.71      2493.84
      4025.25      2431.20
      4037.80      2435.50
      4050.35      2412.36
      4062.89      2367.74
      4075.44      2317.71
      4087.99      2262.65
      4100.54      2129.80
      4113.08      2204.48
      4125.63      2288.96
      4138.18      2322.76
      4150.73      2265.69
      4163.27      2239.15
      4175.82      2238.23
      4188.37      2186.06
      4200.91      2147.54
      4213.46      2166.30
      4226.01      2172.61
      4238.56      2171.77
      4251.10      2173.70
      4263.65      2170.85
      4276.20      2149.78
      4288.74      2147.04
      4301.29      2138.21
      4313.84      2072.99
      4326.39      1982.23
      4338.93      1889.95
      4351.48      1956.66
      4364.03      2012.28
      4376.58      1980.39
      4389.12      1944.85
      4401.67      1925.26
      4414.22      1900.19
      4426.76      1856.42
      4439.31      1844.52
      4451.86      1875.34
      4464.41      1866.25
      4476.95      1823.33
      4489.50      1810.34
      4502.05      1786.91
      4514.60      1787.65
      4527.14      1738.27
      4539.69      1688.88
      4552.24      1700.61
      4564.78      1751.87
      4577.33      1732.52
      4589.88      1712.80
      4602.43      1703.28
      4614.97      1720.93
      4627.52      1707.96
      4640.07      1687.29
      4652.62      1657.81
      4665.16      1635.89
      4677.71      1576.78
      4690.26      1544.32
      4702.81      1573.07
      4715.35      1564.45
      4727.90      1568.60
      4740.45      1535.74
      4752.99      1514.55
      4765.54      1511.99
      4778.09      1524.47
      4790.64      1498.98
      4803.18      1470.74
      4815.73      1464.68
      4828.28      1453.94
      4840.82      1434.05
      4853.37      1324.59
      4865.92      1277.13
      4878.47      1367.97
      4891.01      1384.28
      4903.56      1386.43
      4916.11      1385.53
      4928.66      1390.96
      4941.20      1383.05
      4953.75      1353.95
      4966.30      1336.53
      4978.84      1327.43
      4991.39      1319.50
      5003.94      1322.04
      5016.49      1312.42
      5029.03      1294.40
      5041.58      1286.33
      5054.13      1277.42
      5066.67      1261.21
      5079.22      1258.79
      5091.77      1256.51
      5104.32      1246.89
      5116.86      1238.00
      5129.41      1230.14
      5141.96      1227.91
      5154.51      1216.34
      5167.05      1196.77
      5179.60      1182.31
      5192.15      1170.89
      5204.69      1151.86
      5217.24      1144.55
      5229.79      1139.51
      5242.34      1126.65
      5254.88      1136.34
      5267.43      1126.92
      5279.98      1106.77
      5292.53      1098.59
      5305.07      1091.01
      5317.62      1086.52
      5330.17      1076.69
      5342.71      1067.64
      5355.26      1065.73
      5367.81      1050.67
      5380.36      1039.07
      5392.90      1034.29
      5405.45      1007.65
      5418.00      979.784
      5430.55      998.552
      5443.09      996.238
      5455.64      994.916
      5468.19      988.113
      5480.73      979.901
      5493.28      977.862
      5505.83      978.894
      5518.38      973.600
      5530.92      979.144
      5543.47      973.400
      5556.02      966.381
      5568.57      971.369
      5581.11      959.927
      5593.66      942.556
      5606.21      933.193
      5618.75      919.308
      5631.30      909.057
      5643.85      903.002
      5656.40      897.414
      5668.94      891.861
      5681.49      886.341
      5694.04      880.893
      5706.58      875.463
      5719.13      870.061
      5731.68      864.731
      5744.23      856.906
      5756.77      845.031
      5769.32      842.086
      5781.87      842.384
      5794.41      840.479
      5806.96      838.705
      5819.51      837.063
      5832.06      833.893
      5844.60      828.486
      5857.15      819.809
      5869.70      808.670
      5882.25      798.298
      5894.79      793.223
      5907.34      796.172
      5919.89      802.428
      5932.44      794.947
      5944.98      786.264
      5957.53      779.580
      5970.08      775.461
      5982.62      771.999
      5995.17      767.971
      6007.72      762.942
      6020.27      757.137
      6032.81      750.430
      6045.36      744.140
      6057.91      738.610
      6070.45      733.556
      6083.00      730.715
      6095.55      732.892
      6108.10      731.307
      6120.64      726.938
      6133.19      720.522
      6145.74      713.728
      6158.29      706.641
      6170.83      699.381
      6183.38      692.507
      6195.93      686.826
      6208.47      684.055
      6221.02      683.377
      6233.57      684.877
      6246.12      683.799
      6258.66      678.727
      6271.21      665.551
      6283.76      655.336
      6296.30      655.201
      6308.85      653.821
      6321.40      651.027
      6333.95      646.214
      6346.49      641.593
      6359.04      637.526
      6371.59      634.509
      6384.14      632.066
      6396.68      630.370
      6409.23      628.052
      6421.78      625.401
      6434.32      622.375
      6446.87      615.978
      6459.42      607.388
      6471.97      602.866
      6484.51      602.932
      6497.06      608.937
      6509.61      611.957
      6522.16      611.162
      6534.70      602.559
      6547.25      590.829
      6559.80      580.376
      6572.34      588.596
      6584.89      599.634
      6597.44      609.027
      6609.99      612.005
      6622.53      610.736
      6635.08      604.240
      6647.63      595.784
      6660.18      586.088
      6672.72      575.855
      6685.27      572.204
      6697.82      577.169
      6710.36      581.148
      6722.91      582.040
      6735.46      576.227
      6748.01      568.589
      6760.55      560.567
      6773.10      554.796
      6785.65      549.150
      6798.20      543.357
      6810.74      537.738
      6823.29      538.527
      6835.84      552.858
      6848.38      547.703
      6860.93      531.149
      6873.48      514.212
      6886.03      507.933
      6898.57      513.045
      6911.12      516.996
      6923.67      516.600
      6936.21      508.117
      6948.76      505.194
      6961.31      504.833
      6973.86      502.942
      6986.40      499.442
      6998.95      494.868
      7011.50      492.974
      7024.05      488.892
      7036.59      480.049
      7049.14      478.381
      7061.69      479.612
      7074.23      479.073
      7086.78      477.142
      7099.33      474.474
      7111.88      473.836
      7124.42      472.216
      7136.97      468.352
      7149.52      465.770
      7162.07      462.337
      7174.61      454.791
      7187.16      448.964
      7199.71      445.806
      7212.25      448.933
      7224.80      448.833
      7237.35      442.214
      7249.90      438.092
      7262.44      435.716
      7274.99      435.344
      7287.54      436.890
      7300.09      439.429
      7312.63      440.663
      7325.18      439.579
      7337.73      436.081
      7350.27      437.627
      7362.82      438.324
      7375.37      432.582
      7387.92      428.551
      7400.46      426.532
      7413.01      427.347
      7425.56      428.467
      7438.11      429.148
      7450.65      426.382
      7463.20      423.476
      7475.75      422.363
      7488.29      415.630
      7500.84      407.316
      7513.39      406.679
      7525.94      407.689
      7538.48      409.667
      7551.03      414.448
      7563.58      421.053
      7576.12      428.928
      7588.67      411.651
      7601.22      390.121
      7613.77      403.556
      7626.31      407.478
      7638.86      398.260
      7651.41      393.033
      7663.96      381.312
      7676.50      356.665
      7689.05      358.125
      7701.60      369.902
      7714.15      373.835
      7726.69      375.998
      7739.24      376.603
      7751.79      371.682
      7764.33      368.049
      7776.88      368.754
      7789.43      369.849
      7801.98      369.696
      7814.52      365.270
      7827.07      361.176
      7839.62      357.590
      7852.16      353.611
      7864.71      349.432
      7877.26      345.162
      7889.81      342.417
      7902.35      340.781
      7914.90      340.694
      7927.45      341.215
      7939.99      342.473
      7952.54      345.691
      7965.09      346.654
      7977.64      344.287
      7990.18      345.481
      8002.73      347.002
      8015.28      346.225
      8027.83      347.510
      8040.37      349.918
      8052.92      350.474
      8065.47      348.555
      8078.02      343.582
      8090.56      335.370
      8103.11      330.048
      8115.66      333.847
      8128.20      335.520
      8140.75      334.259
      8153.30      327.035
      8165.85      322.039
      8178.39      320.451
      8190.94      318.742
      8203.49      314.267
      8216.03      304.314
      8228.58      301.524
      8241.13      304.673
      8253.68      315.430
      8266.22      317.547
      8278.77      311.241
      8291.32      315.186
      8303.86      318.600
      8316.41      315.964
      8328.96      314.901
      8341.51      311.898
      8354.05      298.800
      8366.60      296.786
      8379.15      305.476
      8391.70      311.544
      8404.24      314.736
      8416.79      314.036
      8429.34      312.512
      8441.88      310.493
      8454.43      307.881
      8466.98      304.056
      8479.53      300.248
      8492.07      302.477
      8504.62      304.697
      8517.17      304.569
      8529.72      298.308
      8542.26      292.546
      8554.81      295.259
      8567.36      292.953
      8579.90      286.543
      8592.45      281.111
      8605.00      279.678
      8617.55      283.302
      8630.09      283.693
      8642.64      284.386
      8655.19      288.926
      8667.73      292.801
      8680.28      295.028
      8692.83      292.505
      8705.38      290.947
      8717.92      291.469
      8730.47      289.488
      8743.02      287.231
      8755.57      286.431
      8768.11      287.075
      8780.66      288.719
      8793.21      291.294
      8805.76      291.673
      8818.30      289.352
      8830.85      286.998
      8843.40      282.000
      8855.94      271.433
      8868.49      265.601
      8881.04      263.971
      8893.59      267.751
      8906.13      268.719
      8918.68      266.444
      8931.23      267.644
      8943.78      265.675
      8956.32      255.858
      8968.87      249.425
      8981.42      244.853
      8993.96      240.499
      9006.51      242.624
      9019.06      250.907
      9031.61      260.292
      9044.15      261.382
      9056.70      248.077
      9069.25      242.234
      9081.80      242.452
      9094.34      250.473
      9106.89      251.058
      9119.44      245.237
      9131.98      242.954
      9144.53      240.376
      9157.08      236.695
      9169.63      242.342
      9182.17      249.410
      9194.72      249.198
      9207.27      247.825
      9219.81      245.734
      9232.36      241.717
      9244.91      239.556
      9257.46      241.138
      9270.00      249.909
      9282.55      261.200
      9295.10      271.556
      9307.65      260.392
      9320.19      239.736
      9332.74      247.225
      9345.29      245.017
      9357.83      226.321
      9370.38      234.509
      9382.93      248.615
      9395.48      254.291
      9408.02      244.086
      9420.57      226.551
      9433.12      218.955
      9445.66      220.628
      9458.21      230.149
      9470.76      227.620
      9483.31      224.027
      9495.85      226.223
      9508.40      229.818
      9520.95      233.620
      9533.50      235.976
      9546.04      229.133
      9558.59      214.450
      9571.14      213.902
      9583.69      215.521
      9596.23      213.645
      9608.78      213.664
      9621.33      212.800
      9633.87      204.691
      9646.42      202.188
