# spectrum  Type     U-V    B-V    V-R    V-I    V-J    V-K
# ---------------------------------------------------------
# bpgs_53  G8V      1.16   0.75   0.52   0.94   1.40   1.84
#
# lambda (Angstroms)  flux (phot/lambda)
#----------------------------------------------------------
PHOTLAM
      895.930  2.25341e-11
      908.286  6.94621e-11
      920.641  1.35545e-10
      932.996  2.95608e-10
      945.352  5.06463e-10
      957.707  7.69976e-10
      970.062  1.21686e-09
      982.417  1.77252e-09
      994.773  2.63943e-09
      1007.13  3.70375e-09
      1019.48  5.26114e-09
      1031.84  7.15695e-09
      1044.19  1.01838e-08
      1056.55  1.40445e-08
      1068.90  1.96721e-08
      1081.26  2.68716e-08
      1093.61  1.54903e-07
      1105.97  3.88240e-07
      1118.32  5.96860e-07
      1130.68  7.79367e-07
      1143.04  1.00632e-06
      1155.39  1.34603e-06
      1167.75  1.74130e-06
      1180.10  2.18706e-06
      1192.46  2.74372e-06
      1204.81  3.47136e-06
      1217.17  4.45318e-06
      1229.52  5.86818e-06
      1241.88  7.54681e-06
      1254.23  9.56533e-06
      1266.59  1.18760e-05
      1278.94  1.45147e-05
      1291.30  1.79847e-05
      1303.65  2.18874e-05
      1316.01  2.63077e-05
      1328.36  3.13098e-05
      1340.72  3.68980e-05
      1353.07  4.38658e-05
      1365.43  5.22892e-05
      1377.79  6.24934e-05
      1390.14  7.50859e-05
      1402.50  8.93356e-05
      1414.85  0.000106173
      1427.21  0.000126223
      1439.56  0.000149294
      1451.92  0.000177860
      1464.27  0.000209753
      1476.63  0.000246012
      1488.98  0.000291540
      1501.34  0.000610226
      1513.69   0.00200093
      1526.05   0.00345540
      1538.40   0.00477476
      1550.76   0.00518772
      1563.11   0.00558297
      1575.47   0.00653229
      1587.82   0.00772525
      1600.18   0.00905592
      1612.53    0.0104115
      1624.89    0.0117226
      1637.25    0.0129484
      1649.60    0.0139219
      1661.96    0.0382142
      1674.31     0.140645
      1686.67     0.225311
      1699.02     0.287856
      1711.38     0.338394
      1723.73     0.395467
      1736.09     0.470147
      1748.44     0.495023
      1760.80     0.513726
      1773.15     0.624437
      1785.51     0.684075
      1797.86     0.663470
      1810.22     0.602764
      1822.57     0.552351
      1834.93     0.566530
      1847.28     0.636188
      1859.64     0.739296
      1872.00     0.819798
      1884.35     0.903362
      1896.71      1.00046
      1909.06      1.12188
      1921.42      1.21379
      1933.77      1.15028
      1946.13      1.11715
      1958.48      1.15123
      1970.84      1.39469
      1983.19      1.62497
      1995.55      1.69687
      2007.90      2.32008
      2020.26      2.49362
      2032.61      2.83619
      2044.97      3.47739
      2057.32      3.65498
      2069.68      4.29953
      2082.03      5.40486
      2094.39      6.08571
      2106.74      6.51019
      2119.10      7.65085
      2131.46      7.21802
      2143.81      9.26252
      2156.17      8.58593
      2168.52      7.85726
      2180.88      10.0982
      2193.23      10.8259
      2205.59      10.7541
      2217.94      10.2666
      2230.30      13.7609
      2242.65      14.0411
      2255.01      12.3870
      2267.36      8.89508
      2279.72      11.4058
      2292.07      11.4593
      2304.43      12.0879
      2316.78      11.8829
      2329.14      11.7771
      2341.49      9.39540
      2353.85      12.2912
      2366.20      11.6649
      2378.56      10.6606
      2390.92      10.9122
      2403.27      9.92067
      2415.63      12.8395
      2427.98      16.5574
      2440.34      15.3349
      2452.69      12.3302
      2465.05      12.3154
      2477.40      12.9549
      2489.76      11.5008
      2502.11      14.6306
      2514.47      11.4329
      2526.82      11.0271
      2539.18      13.9592
      2551.53      17.8887
      2563.89      24.2053
      2576.24      31.1260
      2588.60      29.7158
      2600.95      22.1507
      2613.31      22.1635
      2625.67      26.0564
      2638.02      50.1361
      2650.38      59.3930
      2662.73      60.5336
      2675.09      60.4596
      2687.44      58.0178
      2699.80      62.9306
      2712.15      58.2344
      2724.51      48.6636
      2736.86      42.4387
      2749.22      35.9933
      2761.57      57.1433
      2773.93      56.4264
      2786.28      36.1357
      2798.64      20.3187
      2810.99      43.0553
      2823.35      70.6440
      2835.70      77.8797
      2848.06      44.3988
      2860.42      68.5807
      2872.77      85.8866
      2885.13      81.6854
      2897.48      129.215
      2909.84      144.691
      2922.19      127.311
      2934.55      132.400
      2946.90      127.384
      2959.26      140.187
      2971.61      120.024
      2983.97      116.363
      2996.32      115.528
      3008.68      113.878
      3021.03      108.853
      3033.39      153.891
      3045.74      149.969
      3058.10      135.847
      3070.45      144.686
      3082.81      148.213
      3095.16      114.474
      3107.52      144.643
      3119.88      159.302
      3132.23      160.454
      3144.59      163.035
      3156.94      157.838
      3169.30      167.809
      3181.65      171.688
      3194.01      174.640
      3206.36      173.518
      3218.72      169.857
      3231.07      187.888
      3243.43      203.351
      3255.78      201.149
      3268.14      206.507
      3280.49      208.984
      3292.85      224.045
      3305.20      227.272
      3317.56      221.759
      3329.91      220.439
      3342.27      227.128
      3354.62      230.772
      3366.98      214.936
      3379.34      220.760
      3391.69      232.890
      3404.05      238.424
      3416.40      236.337
      3428.76      233.959
      3441.11      218.454
      3453.47      223.210
      3465.82      230.017
      3478.18      230.469
      3490.53      237.017
      3502.89      257.641
      3515.24      259.495
      3527.60      254.848
      3539.95      279.280
      3552.31      278.436
      3564.66      245.580
      3577.02      223.543
      3589.38      239.715
      3601.73      263.165
      3614.09      261.682
      3626.44      277.215
      3638.80      283.655
      3651.15      309.012
      3663.51      329.378
      3675.86      320.744
      3688.22      319.091
      3700.57      317.955
      3712.93      306.759
      3725.28      276.588
      3737.64      248.640
      3749.99      269.979
      3762.35      294.951
      3774.70      328.353
      3787.06      327.450
      3799.41      314.106
      3811.77      290.050
      3824.12      241.274
      3836.48      238.370
      3848.83      257.100
      3861.19      260.218
      3873.55      269.440
      3885.90      287.426
      3898.26      312.836
      3910.61      325.899
      3922.97      302.440
      3935.32      285.055
      3947.68      330.087
      3960.03      337.491
      3972.39      360.799
      3984.74      465.651
      3997.10      528.458
      4009.45      569.059
      4021.81      568.227
      4034.16      557.020
      4046.52      543.559
      4058.87      536.773
      4071.23      530.253
      4083.58      559.125
      4095.94      572.333
      4108.29      579.120
      4120.65      589.029
      4133.01      573.189
      4145.36      560.758
      4157.72      572.750
      4170.07      571.929
      4182.43      557.946
      4194.78      564.292
      4207.14      581.543
      4219.49      567.106
      4231.85      561.323
      4244.20      581.548
      4256.56      584.679
      4268.91      586.515
      4281.27      577.967
      4293.62      558.017
      4305.98      563.589
      4318.33      622.779
      4330.69      624.857
      4343.04      639.683
      4355.40      613.151
      4367.75      608.798
      4380.11      605.873
      4392.47      594.751
      4404.82      617.498
      4417.18      695.332
      4429.53      745.559
      4441.89      771.231
      4454.24      756.635
      4466.60      789.023
      4478.95      822.140
      4491.31      834.231
      4503.66      866.689
      4516.02      857.767
      4528.37      831.737
      4540.73      845.741
      4553.08      868.386
      4565.44      874.417
      4577.79      856.997
      4590.15      853.159
      4602.51      867.496
      4614.86      882.216
      4627.21      882.256
      4639.57      866.268
      4651.93      863.561
      4664.28      862.937
      4676.64      868.909
      4688.99      873.795
      4701.35      866.652
      4713.70      887.426
      4726.06      909.762
      4738.41      911.812
      4750.77      918.345
      4763.12      916.506
      4775.48      941.108
      4787.83      958.317
      4800.19      971.008
      4812.54      966.104
      4824.90      959.044
      4837.25      948.118
      4849.61      926.159
      4861.97      887.854
      4874.32      888.262
      4886.68      900.949
      4899.03      921.885
      4911.39      919.168
      4923.74      908.237
      4936.10      921.949
      4948.45      925.548
      4960.81      926.979
      4973.16      927.744
      4985.52      912.460
      4997.87      907.348
      5010.23      889.917
      5022.58      898.841
      5034.94      917.166
      5047.29      915.406
      5059.65      913.158
      5072.00      909.428
      5084.36      904.971
      5096.71      924.185
      5109.07      934.245
      5121.43      923.747
      5133.78      909.993
      5146.14      903.697
      5158.49      868.783
      5170.85      820.602
      5183.20      830.607
      5195.56      870.932
      5207.91      870.262
      5220.27      872.635
      5232.62      890.003
      5244.98      920.704
      5257.33      894.079
      5269.69      867.130
      5282.04      906.918
      5294.40      941.628
      5306.75      958.263
      5319.11      950.095
      5331.46      932.928
      5343.82      955.762
      5356.18      977.900
      5368.53      969.071
      5380.89      962.771
      5393.24      957.352
      5405.60      946.973
      5417.95      983.596
      5430.31      1007.55
      5442.66      1014.73
      5455.02      1022.17
      5467.37      1029.12
      5479.73      1031.66
      5492.08      1045.74
      5504.44      1057.16
      5516.79      1057.99
      5529.15      1046.24
      5541.50      1040.89
      5553.86      1055.05
      5566.21      1042.56
      5578.57      1030.15
      5590.93      1023.53
      5603.28      1031.32
      5615.64      1059.45
      5627.99      1070.98
      5640.35      1077.19
      5652.70      1080.96
      5665.06      1082.28
      5677.41      1092.98
      5689.77      1100.75
      5702.12      1081.36
      5714.48      1079.84
      5726.83      1111.90
      5739.19      1110.44
      5751.54      1104.64
      5763.90      1103.34
      5776.25      1102.86
      5788.61      1106.32
      5800.96      1111.56
      5813.32      1116.37
      5825.67      1117.52
      5838.03      1114.68
      5850.39      1112.16
      5862.74      1106.87
      5875.10      1093.89
      5887.45      1086.77
      5899.81      1085.81
      5912.16      1096.53
      5924.52      1109.35
      5936.87      1121.45
      5949.23      1122.26
      5961.58      1120.44
      5973.94      1126.55
      5986.29      1130.82
      5998.65      1132.52
      6011.00      1134.65
      6023.36      1137.95
      6035.71      1143.37
      6048.07      1145.02
      6060.42      1145.97
      6072.78      1154.84
      6085.13      1159.21
      6097.49      1155.27
      6109.84      1143.42
      6122.20      1132.26
      6134.56      1131.94
      6146.91      1123.52
      6159.27      1110.10
      6171.62      1113.13
      6183.98      1120.40
      6196.33      1128.62
      6208.69      1133.87
      6221.04      1137.94
      6233.40      1142.72
      6245.75      1144.78
      6258.11      1143.96
      6270.46      1147.15
      6282.82      1151.71
      6295.17      1156.85
      6307.53      1150.51
      6319.88      1138.97
      6332.24      1144.16
      6344.60      1149.92
      6356.95      1152.24
      6369.30      1156.66
      6381.66      1160.31
      6394.02      1158.07
      6406.37      1153.08
      6418.73      1147.77
      6431.08      1157.27
      6443.44      1167.43
      6455.79      1170.69
      6468.15      1169.61
      6480.50      1167.59
      6492.86      1171.31
      6505.21      1176.48
      6517.57      1182.05
      6529.92      1185.32
      6542.28      1183.97
      6554.63      1171.11
      6566.99      1165.61
      6579.34      1168.72
      6591.70      1187.71
      6604.05      1205.62
      6616.41      1215.23
      6628.76      1215.35
      6641.12      1210.81
      6653.48      1205.55
      6665.83      1199.74
      6678.19      1193.32
      6690.54      1186.26
      6702.90      1180.44
      6715.25      1178.61
      6727.61      1179.75
      6739.96      1181.88
      6752.32      1179.55
      6764.67      1180.13
      6777.03      1186.28
      6789.38      1188.70
      6801.74      1185.02
      6814.09      1165.82
      6826.45      1160.68
      6838.80      1168.48
      6851.16      1161.91
      6863.52      1156.80
      6875.87      1162.26
      6888.23      1166.85
      6900.58      1170.81
      6912.94      1175.23
      6925.29      1186.70
      6937.65      1206.22
      6950.00      1211.48
      6962.36      1207.82
      6974.71      1192.89
      6987.07      1186.98
      6999.42      1189.61
      7011.78      1198.08
      7024.13      1200.17
      7036.49      1189.03
      7048.84      1185.21
      7061.20      1185.28
      7073.55      1186.02
      7085.91      1185.98
      7098.26      1184.47
      7110.62      1178.38
      7122.98      1172.20
      7135.33      1169.54
      7147.69      1188.79
      7160.04      1219.61
      7172.40      1235.00
      7184.75      1226.56
      7197.11      1187.66
      7209.46      1170.90
      7221.82      1165.86
      7234.17      1170.09
      7246.53      1170.23
      7258.88      1166.11
      7271.24      1164.11
      7283.59      1164.02
      7295.95      1166.36
      7308.30      1163.02
      7320.66      1156.02
      7333.02      1147.25
      7345.37      1144.21
      7357.73      1148.61
      7370.08      1150.72
      7382.44      1148.17
      7394.79      1134.63
      7407.15      1132.15
      7419.50      1138.24
      7431.86      1142.37
      7444.21      1145.80
      7456.57      1148.78
      7468.92      1146.88
      7481.28      1142.89
      7493.63      1139.57
      7505.99      1136.29
      7518.34      1133.38
      7530.70      1134.57
      7543.05      1132.01
      7555.41      1119.20
      7567.76      1158.29
      7580.12      1225.37
      7592.47      1262.50
      7604.83      1324.29
      7617.19      1420.85
      7629.54      1372.24
      7641.90      1272.07
      7654.25      1191.01
      7666.61      1114.48
      7678.96      1051.36
      7691.32      1074.50
      7703.67      1109.32
      7716.03      1125.55
      7728.38      1136.98
      7740.74      1143.29
      7753.09      1135.84
      7765.45      1132.60
      7777.80      1136.63
      7790.16      1136.96
      7802.51      1135.85
      7814.87      1134.10
      7827.22      1134.90
      7839.58      1136.72
      7851.94      1134.11
      7864.29      1131.85
      7876.65      1131.77
      7889.00      1132.41
      7901.36      1131.11
      7913.71      1122.02
      7926.07      1113.56
      7938.42      1107.51
      7950.78      1110.62
      7963.13      1116.31
      7975.49      1122.21
      7987.84      1122.12
      8000.20      1118.06
      8012.55      1113.47
      8024.91      1109.82
      8037.26      1107.72
      8049.62      1107.18
      8061.97      1105.85
      8074.33      1100.24
      8086.69      1092.71
      8099.04      1086.52
      8111.39      1101.14
      8123.75      1116.36
      8136.11      1122.53
      8148.46      1115.22
      8160.82      1100.36
      8173.17      1083.46
      8185.53      1070.28
      8197.88      1062.29
      8210.24      1059.37
      8222.59      1059.00
      8234.95      1060.79
      8247.30      1068.29
      8259.66      1076.87
      8272.01      1065.89
      8284.37      1059.30
      8296.72      1066.15
      8309.08      1067.27
      8321.43      1062.46
      8333.79      1045.85
      8346.14      1043.65
      8358.50      1056.63
      8370.85      1058.74
      8383.21      1060.64
      8395.57      1067.98
      8407.92      1067.32
      8420.28      1060.20
      8432.63      1045.25
      8444.99      1040.51
      8457.34      1050.61
      8469.70      1044.97
      8482.05      1034.26
      8494.41      1026.47
      8506.76      1028.20
      8519.12      1035.21
      8531.47      1024.56
      8543.83      1015.61
      8556.18      1018.53
      8568.54      1030.63
      8580.89      1045.21
      8593.25      1052.06
      8605.61      1057.15
      8617.96      1060.76
      8630.32      1054.44
      8642.67      1041.46
      8655.03      1019.56
      8667.38      1018.75
      8679.74      1033.15
      8692.09      1044.81
      8704.45      1047.50
      8716.80      1037.16
      8729.16      1038.67
      8741.51      1046.28
      8753.87      1056.96
      8766.22      1057.44
      8778.58      1048.18
      8790.93      1045.91
      8803.29      1046.49
      8815.64      1048.87
      8828.00      1054.25
      8840.36      1058.66
      8852.71      1049.22
      8865.06      1040.81
      8877.42      1036.63
      8889.78      1033.31
      8902.13      1030.58
      8914.49      1028.85
      8926.84      1033.74
      8939.20      1044.00
      8951.55      1052.55
      8963.91      1059.52
      8976.26      1064.06
      8988.62      1062.54
      9000.97      1058.94
      9013.33      1059.33
      9025.68      1067.26
      9038.04      1082.26
      9050.39      1087.37
      9062.75      1082.14
      9075.10      1058.65
      9087.46      1050.30
      9099.82      1053.38
      9112.17      1055.74
      9124.53      1056.68
      9136.88      1055.24
      9149.24      1051.61
      9161.59      1051.15
      9173.95      1064.31
      9186.30      1072.01
      9198.66      1071.89
      9211.01      1064.31
      9223.37      1047.51
      9235.72      1015.41
      9248.08      988.559
      9260.43      970.749
      9272.79      979.746
      9285.14      989.599
      9297.50      998.214
      9309.85      1048.85
      9322.21      1115.98
      9334.56      1183.84
      9346.92      1158.66
      9359.28      1069.23
      9371.63      1068.78
      9383.98      1092.83
      9396.34      1123.09
      9408.70      1107.05
      9421.05      1066.45
      9433.41      1021.60
      9445.76      1005.41
      9458.12      1019.80
      9470.47      1016.37
      9482.83      1012.24
      9495.18      1019.76
      9507.54      1025.04
      9519.89      1029.23
      9532.25      1040.32
      9544.60      1037.97
      9556.96      1014.77
      9569.31      1017.32
      9581.67      1023.75
      9594.02      1005.55
      9606.38      1005.67
      9618.74      1022.81
      9631.09      1015.73
      9643.45      1007.66
      9655.80      1010.34
      9668.16      1003.19
      9680.51      990.020
      9692.87      978.031
      9705.22      973.091
      9717.58      976.995
      9729.93      975.547
      9742.29      972.821
      9754.64      971.739
      9767.00      969.732
      9779.35      968.055
      9791.71      976.080
      9804.06      987.933
      9816.42      1002.20
      9828.78      998.570
      9841.13      988.611
      9853.49      988.523
      9865.84      982.466
      9878.19      970.489
      9890.55      979.035
