# spectrum  Type     U-V    B-V    V-R    V-I    V-J    V-K
# ---------------------------------------------------------
# bpgs_68  M3V      2.66   1.44   1.16   2.47   3.71   4.60
#
# lambda (Angstroms)  flux (phot/lambda)
#----------------------------------------------------------
PHOTLAM
      1985.67    0.0454507
      1997.48     0.136683
      2009.29     0.247396
      2021.10     0.200070
      2032.91     0.198621
      2044.72     0.257724
      2056.53     0.326036
      2068.34     0.453507
      2080.15     0.549995
      2091.96     0.595355
      2103.77     0.387335
      2115.58     0.193547
      2127.39     0.510798
      2139.20     0.653489
      2151.01     0.200831
      2162.82     0.153801
      2174.63     0.208435
      2186.44     0.100940
      2198.25     0.179409
      2210.06     0.265285
      2221.87    0.0892694
      2233.68    0.0215962
      2245.49     0.236534
      2257.30     0.577123
      2269.11     0.575503
      2280.92     0.584480
      2292.73     0.240600
      2304.55     0.145585
      2316.36     0.264824
      2328.17     0.809396
      2339.98     0.886518
      2351.79     0.390624
      2363.60     0.644236
      2375.41     0.952864
      2387.22     0.881900
      2399.03     0.645598
      2410.84     0.224498
      2422.65     0.668607
      2434.46     0.698014
      2446.27     0.624356
      2458.08     0.979211
      2469.89      1.07700
      2481.70      1.07734
      2493.51     0.836248
      2505.32     0.918814
      2517.13     0.920287
      2528.94     0.943922
      2540.75      1.44436
      2552.56      1.47093
      2564.37      1.55479
      2576.18      1.27522
      2587.99     0.972099
      2599.80      1.17262
      2611.61      1.24922
      2623.42      2.02392
      2635.23      2.59846
      2647.04      3.57600
      2658.85      3.43465
      2670.66      3.67500
      2682.47      3.58802
      2694.28      3.91366
      2706.09      3.35433
      2717.90      3.36778
      2729.71      3.02808
      2741.52      3.58222
      2753.33      4.16763
      2765.14      5.09670
      2776.95      5.60818
      2788.76      8.30900
      2800.58      21.6854
      2812.39      9.55965
      2824.20      5.13258
      2836.01      5.62277
      2847.82      6.95610
      2859.63      7.19005
      2871.44      7.72097
      2883.25      7.57252
      2895.06      7.57307
      2906.87      8.20214
      2918.68      10.5483
      2930.49      11.2766
      2942.30      10.3757
      2954.11      8.51206
      2965.92      8.30557
      2977.73      8.11310
      2989.54      10.9471
      3001.35      10.9120
      3013.16      10.4102
      3024.97      9.94009
      3036.78      14.4648
      3048.59      13.0396
      3060.40      10.2412
      3072.21      11.2305
      3084.02      14.3520
      3095.83      15.0105
      3107.64      20.1129
      3119.45      19.8518
      3131.26      15.3086
      3143.07      12.7924
      3154.88      20.5428
      3166.69      14.5277
      3178.50      17.0246
      3190.31      21.7034
      3202.12      25.4052
      3213.93      24.3968
      3225.74      25.7067
      3237.55      29.5795
      3249.36      29.2900
      3261.17      25.3263
      3272.99      19.4389
      3284.80      26.1896
      3296.61      27.7052
      3308.42      26.0800
      3320.23      28.7206
      3332.04      37.0389
      3343.85      40.0537
      3355.66      29.8738
      3367.47      38.4946
      3379.28      39.0601
      3391.09      28.9164
      3402.90      38.9691
      3414.71      41.1139
      3426.52      49.6401
      3438.33      42.9346
      3450.14      38.4976
      3461.95      49.2418
      3473.76      51.6118
      3485.57      52.9827
      3497.38      55.0219
      3509.19      53.5472
      3521.00      56.7640
      3532.81      62.1041
      3544.62      67.8035
      3556.43      61.9205
      3568.24      59.1437
      3580.05      57.7207
      3591.86      55.8589
      3603.67      53.9738
      3615.48      52.0286
      3627.29      66.0745
      3639.10      67.6567
      3650.91      65.8991
      3662.72      75.2468
      3674.53      66.4260
      3686.34      72.1558
      3698.15      85.1712
      3709.96      75.5727
      3721.77      72.7892
      3733.58      63.3398
      3745.39      57.7503
      3757.20      74.6912
      3769.01      82.1448
      3780.82      87.5078
      3792.64      82.1350
      3804.45      85.8597
      3816.26      84.3666
      3828.07      74.1563
      3839.88      72.8561
      3851.69      79.4536
      3863.50      91.9182
      3875.31      101.998
      3887.12      96.1593
      3898.93      88.0162
      3910.74      108.490
      3922.55      108.092
      3934.36      95.6859
      3946.17      103.268
      3957.98      117.832
      3969.79      124.962
      3981.60      153.149
      3993.41      174.000
      4005.22      191.011
      4017.03      209.275
      4028.84      198.637
      4040.65      186.379
      4052.46      187.602
      4064.27      191.502
      4076.08      201.652
      4087.89      205.790
      4099.70      200.700
      4111.51      194.443
      4123.32      212.588
      4135.13      219.921
      4146.94      236.106
      4158.75      247.681
      4170.56      251.979
      4182.37      234.432
      4194.18      219.621
      4205.99      178.599
      4217.80      132.790
      4229.61      137.446
      4241.42      168.756
      4253.23      180.917
      4265.04      196.380
      4276.85      196.859
      4288.66      200.755
      4300.48      204.044
      4312.29      225.476
      4324.10      243.779
      4335.91      257.842
      4347.72      282.748
      4359.53      281.111
      4371.34      274.818
      4383.15      269.047
      4394.96      301.223
      4406.77      316.427
      4418.58      333.627
      4430.39      339.743
      4442.20      347.566
      4454.01      368.024
      4465.82      390.054
      4477.63      414.380
      4489.44      440.794
      4501.25      446.523
      4513.06      454.159
      4524.87      457.397
      4536.68      472.337
      4548.49      506.136
      4560.30      535.227
      4572.11      534.789
      4583.92      525.186
      4595.73      532.851
      4607.54      564.276
      4619.35      558.286
      4631.16      537.686
      4642.97      539.407
      4654.78      572.961
      4666.59      562.439
      4678.40      550.335
      4690.21      560.089
      4702.02      584.859
      4713.83      572.242
      4725.64      575.865
      4737.45      584.140
      4749.26      565.870
      4761.07      502.095
      4772.89      476.576
      4784.70      503.636
      4796.51      529.614
      4808.32      523.012
      4820.13      527.486
      4831.94      539.370
      4843.75      547.434
      4855.56      530.114
      4867.37      554.455
      4879.18      582.035
      4890.99      607.407
      4902.80      648.570
      4914.61      681.012
      4926.42      716.420
      4938.23      708.444
      4950.04      633.395
      4961.85      568.698
      4973.66      596.896
      4985.47      599.559
      4997.28      563.176
      5009.09      563.118
      5020.90      575.339
      5032.71      603.188
      5044.52      638.802
      5056.33      633.944
      5068.14      629.019
      5079.95      644.028
      5091.76      647.253
      5103.57      652.505
      5115.38      674.871
      5127.19      683.157
      5139.00      707.003
      5150.81      698.833
      5162.62      631.881
      5174.43      559.556
      5186.24      610.582
      5198.05      637.975
      5209.86      694.378
      5221.67      797.199
      5233.48      827.742
      5245.29      831.716
      5257.11      800.785
      5268.92      818.666
      5280.73      884.309
      5292.54      914.691
      5304.35      937.683
      5316.16      937.761
      5327.97      930.429
      5339.78      970.279
      5351.59      1011.75
      5363.40      1029.40
      5375.21      1064.22
      5387.02      1093.47
      5398.83      1065.10
      5410.64      1115.95
      5422.45      1165.65
      5434.26      1130.50
      5446.07      1056.47
      5457.88      969.410
      5469.69      980.889
      5481.50      1027.99
      5493.31      1029.02
      5505.12      974.853
      5516.93      966.189
      5528.74      985.272
      5540.55      986.459
      5552.36      1007.01
      5564.17      1046.68
      5575.98      1090.27
      5587.79      1072.13
      5599.60      1040.76
      5611.41      1023.79
      5623.22      1034.32
      5635.03      1054.52
      5646.84      1091.32
      5658.65      1118.32
      5670.46      1115.92
      5682.27      1155.75
      5694.08      1201.65
      5705.89      1251.17
      5717.70      1275.13
      5729.51      1298.18
      5741.32      1353.17
      5753.13      1367.72
      5764.94      1370.93
      5776.75      1366.36
      5788.57      1371.34
      5800.38      1377.22
      5812.19      1365.03
      5824.00      1339.69
      5835.81      1295.34
      5847.62      1235.92
      5859.43      1159.03
      5871.24      1020.56
      5883.05      910.846
      5894.86      899.123
      5906.67      946.404
      5918.48      1032.84
      5930.29      1078.93
      5942.10      1113.02
      5953.91      1144.09
      5965.72      1167.02
      5977.53      1183.11
      5989.34      1224.62
      6001.15      1272.07
      6012.96      1307.06
      6024.77      1350.27
      6036.58      1407.00
      6048.39      1455.62
      6060.20      1499.21
      6072.01      1536.70
      6083.82      1565.23
      6095.63      1578.22
      6107.44      1575.52
      6119.25      1559.92
      6131.06      1519.77
      6142.87      1450.56
      6154.68      1322.92
      6166.49      1223.00
      6178.30      1152.63
      6190.11      1126.01
      6201.92      1111.02
      6213.73      1093.10
      6225.54      1081.99
      6237.35      1081.89
      6249.16      1135.34
      6260.97      1209.29
      6272.79      1284.60
      6284.60      1356.88
      6296.41      1425.01
      6308.22      1510.39
      6320.03      1599.88
      6331.84      1662.56
      6343.65      1709.25
      6355.46      1733.50
      6367.27      1752.03
      6379.08      1771.76
      6390.89      1828.89
      6402.70      1897.22
      6414.51      1972.35
      6426.32      2041.38
      6438.13      2102.10
      6449.94      2131.92
      6461.75      2159.77
      6473.56      2212.30
      6485.37      2245.76
      6497.18      2258.25
      6508.99      2346.68
      6520.80      2453.18
      6532.61      2503.47
      6544.42      2490.85
      6556.23      2391.91
      6568.04      2339.94
      6579.85      2316.03
      6591.66      2308.48
      6603.47      2289.23
      6615.28      2239.36
      6627.09      2161.25
      6638.90      2068.14
      6650.71      2008.73
      6662.52      1953.73
      6674.33      1888.35
      6686.14      1829.79
      6697.95      1779.51
      6709.76      1746.82
      6721.57      1722.48
      6733.38      1707.61
      6745.19      1694.19
      6757.00      1681.64
      6768.82      1674.84
      6780.63      1667.63
      6792.44      1646.96
      6804.25      1637.22
      6816.06      1649.17
      6827.87      1682.60
      6839.68      1718.90
      6851.49      1698.46
      6863.30      1694.75
      6875.11      1751.40
      6886.92      1831.31
      6898.73      1928.24
      6910.54      2041.58
      6922.35      2155.03
      6934.16      2257.03
      6945.97      2335.26
      6957.78      2392.94
      6969.59      2477.74
      6981.40      2565.93
      6993.21      2632.06
      7005.02      2711.67
      7016.83      2809.76
      7028.64      2862.87
      7040.45      2880.71
      7052.26      2820.64
      7064.07      2708.59
      7075.88      2528.26
      7087.69      2430.15
      7099.50      2376.64
      7111.31      2294.51
      7123.12      2214.12
      7134.93      2152.03
      7146.74      2179.80
      7158.55      2276.89
      7170.36      2376.65
      7182.17      2463.62
      7193.98      2510.49
      7205.79      2562.70
      7217.60      2627.57
      7229.41      2749.67
      7241.22      2888.46
      7253.03      3012.91
      7264.84      3134.83
      7276.65      3255.24
      7288.46      3368.08
      7300.28      3480.06
      7312.09      3607.66
      7323.90      3714.42
      7335.71      3778.94
      7347.52      3852.66
      7359.33      3935.01
      7371.14      4031.82
      7382.95      4117.76
      7394.76      4169.00
      7406.57      4196.68
      7418.38      4208.45
      7430.19      4241.33
      7442.00      4282.81
      7453.81      4331.33
      7465.62      4367.60
      7477.43      4390.19
      7489.24      4416.11
      7501.05      4447.94
      7512.86      4497.82
      7524.67      4527.98
      7536.48      4526.73
      7548.29      4539.01
      7560.10      4534.92
      7571.91      4397.06
      7583.72      4228.90
      7595.53      4050.77
      7607.34      4197.51
      7619.15      4499.99
      7630.96      4375.38
      7642.77      4170.49
      7654.58      4005.30
      7666.39      3788.98
      7678.20      3550.48
      7690.01      3579.77
      7701.82      3691.11
      7713.63      3807.24
      7725.44      3881.42
      7737.25      3904.25
      7749.06      3886.34
      7760.88      3869.46
      7772.69      3928.42
      7784.49      4002.62
      7796.31      4085.30
      7808.12      4146.86
      7819.93      4190.48
      7831.74      4191.06
      7843.55      4223.81
      7855.36      4334.74
      7867.17      4383.62
      7878.98      4393.63
      7890.79      4449.00
      7902.60      4499.61
      7914.41      4509.71
      7926.22      4581.66
      7938.03      4708.27
      7949.84      4782.61
      7961.65      4840.98
      7973.46      4898.89
      7985.27      4940.35
      7997.08      4963.12
      8008.89      5025.83
      8020.70      5098.27
      8032.51      5141.22
      8044.32      5198.87
      8056.13      5284.76
      8067.94      5314.91
      8079.75      5312.40
      8091.56      5301.35
      8103.37      5313.75
      8115.18      5379.96
      8126.99      5414.46
      8138.80      5415.16
      8150.61      5334.49
      8162.42      5247.17
      8174.23      5199.45
      8186.04      5186.78
      8197.85      5205.14
      8209.66      5218.12
      8221.47      5263.76
      8233.28      5431.01
      8245.10      5558.96
      8256.90      5614.65
      8268.71      5542.06
      8280.52      5426.15
      8292.34      5374.00
      8304.15      5354.83
      8315.96      5373.36
      8327.76      5350.86
      8339.58      5305.49
      8351.39      5274.56
      8363.20      5276.12
      8375.01      5342.94
      8386.82      5400.38
      8398.63      5444.73
      8410.44      5460.73
      8422.25      5437.72
      8434.06      5321.64
      8445.87      5227.06
      8457.68      5163.06
      8469.49      5126.35
      8481.30      5100.45
      8493.11      5079.85
      8504.92      5085.59
      8516.73      5125.08
      8528.54      5177.90
      8540.35      5232.71
      8552.16      5274.04
      8563.97      5345.88
      8575.78      5473.96
      8587.59      5466.26
      8599.40      5391.63
      8611.21      5430.83
      8623.02      5504.91
      8634.83      5599.37
      8646.64      5552.17
      8658.45      5407.48
      8670.26      5432.69
      8682.07      5488.53
      8693.88      5491.96
      8705.69      5565.38
      8717.50      5710.31
      8729.31      5721.65
      8741.12      5680.74
      8752.93      5633.16
      8764.74      5649.67
      8776.55      5755.05
      8788.37      5801.35
      8800.18      5818.30
      8811.99      5841.61
      8823.80      5851.45
      8835.61      5835.37
      8847.42      5817.47
      8859.23      5793.67
      8871.04      5742.76
      8882.85      5718.64
      8894.66      5775.84
      8906.47      5700.60
      8918.28      5526.25
      8930.09      5543.35
      8941.90      5594.41
      8953.71      5576.80
      8965.52      5618.07
      8977.33      5726.19
      8989.14      5701.91
      9000.95      5670.25
      9012.76      5823.07
      9024.57      6014.38
      9036.38      6222.27
      9048.19      6217.10
      9060.00      6112.31
      9071.81      6063.64
      9083.62      6062.64
      9095.43      6136.25
      9107.24      6175.00
      9119.05      6177.89
      9130.86      6098.43
      9142.67      6052.55
      9154.48      6138.60
      9166.29      6234.67
      9178.10      6330.18
      9189.91      6392.95
      9201.72      6422.81
      9213.53      6370.90
      9225.34      6305.66
      9237.15      6231.68
      9248.96      6134.62
      9260.78      6004.74
      9272.58      5765.98
      9284.40      5527.82
      9296.21      5316.52
      9308.02      5233.82
      9319.83      5240.45
      9331.64      5367.50
      9343.45      5467.14
      9355.26      5466.78
      9367.07      5535.16
      9378.88      5668.15
      9390.69      5916.00
      9402.50      6013.56
      9414.31      5632.91
      9426.12      5415.60
      9437.93      5401.74
      9449.74      5644.51
      9461.55      5879.44
      9473.36      5788.24
      9485.17      5733.87
      9496.98      5767.57
      9508.79      5826.62
      9520.60      5872.09
      9532.41      5806.13
      9544.22      5823.30
      9556.03      6002.12
      9567.84      6107.61
      9579.65      6145.21
      9591.46      6029.42
      9603.27      5966.84
      9615.08      6084.69
      9626.89      6064.78
      9638.70      5972.10
      9650.51      6198.89
      9662.32      6420.59
      9674.13      6389.62
      9685.94      6357.98
      9697.75      6347.46
      9709.56      6389.90
      9721.37      6431.68
      9733.18      6400.61
      9744.99      6410.32
      9756.80      6484.86
      9768.62      6568.34
      9780.43      6663.89
      9792.24      6800.64
      9804.04      6839.74
      9815.86      6707.22
      9827.67      6676.23
      9839.48      6700.81
      9851.29      6673.36
      9863.10      6602.49
      9874.91      6460.31
      9886.72      6334.84
      9898.53      6235.32
      9910.34      6223.59
      9922.15      6265.06
      9933.96      6391.93
      9945.77      6487.85
      9957.58      6540.47
      9969.39      6549.15
      9981.20      6538.17
      9993.01      6515.49
      10004.8      6513.31
      10016.6      6544.10
      10028.4      6630.43
      10040.3      6719.56
      10052.1      6691.33
      10063.9      6716.84
      10075.7      6874.43
      10087.5      6924.02
      10099.3      6892.57
      10111.1      6785.25
      10122.9      6681.88
      10134.7      6625.85
      10146.5      6658.79
      10158.4      6756.04
      10170.2      6790.41
      10182.0      6788.83
      10193.8      6736.03
      10205.6      6731.02
      10217.4      6779.89
      10229.2      6807.13
      10241.0      6788.26
      10252.8      6617.02
      10264.6      6539.46
      10276.5      6625.92
      10288.3      6682.89
      10300.1      6713.73
      10311.9      6689.61
      10323.7      6677.81
      10335.5      6706.00
      10347.3      6662.88
      10359.1      6597.08
      10370.9      6727.15
      10382.7      6844.67
      10394.6      6817.22
      10406.4      6752.54
      10418.2      6674.98
      10430.0      6707.62
      10441.8      6769.55
      10453.6      6817.69
      10465.4      6960.10
      10477.2      7199.21
      10489.0      7221.60
      10500.8      7151.42
      10512.7      7057.72
      10524.5      7020.46
      10536.3      7071.12
      10548.1      7055.46
      10559.9      6998.80
      10571.7      6916.41
      10583.5      6870.53
